TITLE	N-GQD_Glu
DATA TYPE	INFRARED SPECTRUM
ORIGIN	JASCO
OWNER	
DATE	24/11/25
TIME	19:45:01
SPECTROMETER/DATA SYSTEM	
LOCALE	3082
RESOLUTION	
DELTAX	0,964233
XUNITS	1/CM
YUNITS	TRANSMITTANCE
FIRSTX	  399,1927
LASTX	 4000,6047
NPOINTS	    3736
FIRSTY	    85,06151
MAXY	    99,12162
MINY	    22,16119
XYDATA
399,1927	85,0615
400,1569	89,0564
401,1211	91,7699
402,0854	93,2419
403,0496	93,9527
404,0138	94,3229
404,9781	94,6191
405,9423	95,0031
406,9065	95,5681
407,8708	96,3132
408,8350	97,1127
409,7992	97,7418
410,7635	97,9773
411,7277	97,7303
412,6919	97,1006
413,6562	96,2874
414,6204	95,4459
415,5846	94,6153
416,5489	93,7413
417,5131	92,771
418,4773	91,8145
419,4416	91,2056
420,4058	91,1956
421,3700	91,7042
422,3343	92,537
423,2985	93,5799
424,2627	94,765
425,2270	95,9857
426,1912	97,0721
427,1554	97,8447
428,1197	98,186
429,0839	98,0665
430,0481	97,5279
431,0124	96,6651
431,9766	95,6217
432,9408	94,5858
433,9051	93,7648
434,8693	93,3321
435,8335	93,3605
436,7978	93,7851
437,7620	94,4333
438,7262	95,0997
439,6905	95,6094
440,6547	95,8404
441,6189	95,731
442,5832	95,3027
443,5474	94,6857
444,5116	94,0988
445,4759	93,7635
446,4401	93,8096
447,4043	94,2393
448,3686	94,9483
449,3328	95,7704
450,2970	96,5267
451,2613	97,0755
452,2255	97,3489
453,1897	97,3545
454,1540	97,1396
455,1182	96,751
456,0824	96,2304
457,0467	95,6481
458,0109	95,1311
458,9751	94,8185
459,9394	94,7664
460,9036	94,9142
461,8678	95,1453
462,8321	95,3614
463,7963	95,5135
464,7605	95,5936
465,7248	95,6028
466,6890	95,5194
467,6532	95,2968
468,6175	94,9039
469,5817	94,3873
470,5459	93,9105
471,5102	93,7197
472,4744	94,0062
473,4386	94,7448
474,4029	95,6765
475,3671	96,4756
476,3313	96,9273
477,2956	96,991
478,2598	96,7666
479,2240	96,425
480,1883	96,1317
481,1525	95,9841
482,1167	95,9803
483,0810	96,0312
484,0452	96,0142
485,0094	95,8511
485,9737	95,5577
486,9379	95,2236
487,9021	94,9434
488,8664	94,7639
489,8306	94,676
490,7948	94,6423
491,7591	94,6363
492,7233	94,6669
493,6875	94,7648
494,6518	94,9429
495,6160	95,1663
496,5802	95,3582
497,5445	95,4341
498,5087	95,3375
499,4729	95,0574
500,4372	94,6256
501,4014	94,1019
502,3656	93,5545
503,3299	93,0441
504,2941	92,6116
505,2583	92,2736
506,2226	92,0257
507,1868	91,8542
508,1510	91,7535
509,1153	91,7393
510,0795	91,8446
511,0437	92,0979
512,0080	92,4957
512,9722	92,9873
513,9365	93,4817
514,9007	93,8723
515,8649	94,0727
516,8292	94,0497
517,7934	93,8384
518,7576	93,5189
519,7219	93,1663
520,6861	92,8204
521,6503	92,4967
522,6146	92,2165
523,5788	92,0258
524,5430	91,9871
525,5073	92,1412
526,4715	92,4616
527,4357	92,8484
528,4000	93,1753
529,3642	93,3483
530,3284	93,3333
531,2927	93,1544
532,2569	92,8788
533,2211	92,5946
534,1854	92,3824
535,1496	92,2887
536,1138	92,3141
537,0781	92,4189
538,0423	92,5418
539,0065	92,622
539,9708	92,6167
540,9350	92,7209
541,8992	92,5538
542,8635	92,3589
543,8277	92,2013
544,7919	92,1422
545,7562	92,2133
546,7204	92,3961
547,6846	92,6256
548,6489	92,82
549,6131	92,9228
550,5773	92,9283
551,5416	92,8759
552,5058	92,8196
553,4700	92,7946
554,4343	92,804
555,3985	92,8268
556,3627	92,8419
557,3270	92,8446
558,2912	92,8464
559,2554	92,8603
560,2197	92,8876
561,1839	92,9149
562,1481	92,924
563,1124	92,9068
564,0766	92,8702
565,0408	92,8347
566,0051	92,825
566,9693	92,8618
567,9335	92,9565
568,8978	93,1092
569,8620	93,3095
570,8262	93,539
571,7905	93,7737
572,7547	93,9841
573,7189	94,1354
574,6832	94,1967
575,6474	94,1562
576,6116	94,0376
577,5759	93,8981
578,5401	93,806
579,5043	93,8085
580,4686	93,9112
581,4328	94,0742
582,3970	94,2309
583,3613	94,3201
584,3255	94,315
585,2897	94,233
586,2540	94,1212
587,2182	94,0303
588,1824	93,992
589,1467	94,0102
590,1109	94,0645
591,0751	94,1216
592,0394	94,151
593,0036	94,1375
593,9678	94,0855
594,9321	94,0137
595,8963	93,9456
596,8605	93,9001
597,8248	93,8837
598,7890	93,8875
599,7532	93,8886
600,7175	93,8614
601,6817	93,7955
602,6459	93,7053
603,6102	93,6248
604,5744	93,5884
605,5386	93,611
606,5029	93,6824
607,4671	93,7821
608,4313	93,899
609,3956	94,0364
610,3598	94,1901
611,3240	94,3157
612,2883	94,3198
613,2525	94,0998
614,2167	93,6118
615,1810	92,9343
616,1452	92,2724
617,1094	91,8735
618,0737	91,8885
619,0379	92,279
620,0021	92,8472
620,9664	93,3604
621,9306	93,6679
622,8948	93,7435
623,8591	93,6576
624,8233	93,5078
625,7875	93,3438
626,7518	93,1699
627,7160	92,9447
628,6802	92,6383
629,6445	92,2585
630,6087	91,845
631,5729	91,447
632,5372	91,1021
633,5014	90,8248
634,4656	90,6019
635,4299	90,3919
636,3941	90,1329
637,3583	89,7626
638,3226	89,248
639,2868	88,6057
640,2510	87,8961
641,2153	87,1889
642,1795	86,5198
643,1437	85,8684
644,1080	85,1764
645,0722	84,3981
646,0364	83,5505
647,0007	82,7282
647,9649	82,0671
648,9291	81,6706
649,8934	81,5432
650,8576	81,5785
651,8218	81,6197
652,7861	81,5559
653,7503	81,3863
654,7145	81,2097
655,6788	81,1506
656,6430	81,277
657,6072	81,5752
658,5715	81,9941
659,5357	82,5066
660,4999	83,12
661,4642	83,8111
662,4284	84,4488
663,3926	84,7737
664,3569	84,4229
665,3211	82,9706
666,2853	80,0879
667,2496	76,0863
668,2138	72,5908
669,1780	71,5964
670,1423	73,1679
671,1065	75,7558
672,0707	78,0656
673,0350	79,562
673,9992	80,1864
674,9634	80,1377
675,9277	79,7591
676,8919	79,3977
677,8561	79,2576
678,8204	79,3591
679,7846	79,616
680,7488	79,9309
681,7131	80,2407
682,6773	80,518
683,6415	80,7571
684,6058	80,9679
685,5700	81,1758
686,5342	81,4177
687,4985	81,7295
688,4627	82,1304
689,4269	82,6143
690,3912	83,1557
691,3554	83,7229
692,3196	84,2904
693,2839	84,8443
694,2481	85,3814
695,2123	85,9033
696,1766	86,411
697,1408	86,9031
698,1050	87,3789
699,0693	87,8422
700,0335	88,3014
700,9977	88,7611
701,9620	89,211
702,9262	89,6212
703,8904	89,952
704,8547	90,176
705,8189	90,2956
706,7831	90,3413
707,7474	90,3514
708,7116	90,3492
709,6758	90,3379
710,6401	90,3103
711,6043	90,2578
712,5685	90,1576
713,5328	89,9458
714,4970	89,5067
715,4612	88,7364
716,4255	87,5599
717,3897	86,0706
718,3539	84,5452
719,3182	83,3825
720,2824	82,9366
721,2466	83,3361
722,2109	84,4198
723,1751	85,8516
724,1393	87,2974
725,1036	88,5506
726,0678	89,5542
727,0320	90,3471
727,9963	90,9921
728,9605	91,5288
729,9247	91,9679
730,8890	92,3113
731,8532	92,5722
732,8174	92,7763
733,7817	92,9512
734,7459	93,1149
735,7101	93,2744
736,6744	93,4308
737,6386	93,5839
738,6028	93,7327
739,5671	93,8733
740,5313	93,9998
741,4955	94,1083
742,4598	94,2028
743,4240	94,2948
744,3882	94,3979
745,3525	94,5179
746,3167	94,6468
747,2809	94,7647
748,2452	94,8505
749,2094	94,8967
750,1736	94,9196
751,1379	94,956
752,1021	95,0447
753,0663	95,2015
754,0306	95,4027
754,9948	95,59
755,9590	95,6987
756,9233	95,6948
757,8875	95,5969
758,8517	95,4689
759,8160	95,3859
760,7802	95,3957
761,7444	95,4975
762,7087	95,6489
763,6729	95,7942
764,6371	95,8951
765,6014	95,9462
766,5656	95,9686
767,5298	95,9904
768,4941	96,0285
769,4583	96,082
770,4225	96,1382
771,3868	96,1838
772,3510	96,2133
773,3152	96,2294
774,2795	96,2384
775,2437	96,244
776,2079	96,2464
777,1722	96,2453
778,1364	96,2453
779,1006	96,2579
780,0649	96,2965
781,0291	96,3684
781,9933	96,4671
782,9576	96,5718
783,9218	96,6564
784,8860	96,7026
785,8503	96,7107
786,8145	96,6995
787,7787	96,6947
788,7430	96,7142
789,7072	96,7573
790,6714	96,8075
791,6357	96,8441
792,5999	96,8581
793,5641	96,8593
794,5284	96,8715
795,4926	96,9182
796,4568	97,0088
797,4211	97,1326
798,3853	97,2646
799,3495	97,3788
800,3138	97,4603
801,2780	97,5097
802,2422	97,5397
803,2065	97,567
804,1707	97,6057
805,1349	97,6647
806,0992	97,7474
807,0634	97,8526
808,0276	97,9745
808,9919	98,1016
809,9561	98,2186
810,9203	98,3094
811,8846	98,3629
812,8488	98,3762
813,8130	98,3554
814,7773	98,3119
815,7415	98,2568
816,7057	98,197
817,6700	98,1355
818,6342	98,0733
819,5984	98,0112
820,5627	97,9482
821,5269	97,8789
822,4911	97,7916
823,4554	97,6722
824,4196	97,5116
825,3839	97,3124
826,3481	97,0889
827,3123	96,8584
828,2766	96,6317
829,2408	96,4088
830,2050	96,186
831,1693	95,9688
832,1335	95,7823
833,0977	95,668
834,0620	95,6692
835,0262	95,8107
835,9904	96,0854
836,9547	96,4557
837,9189	96,8661
838,8831	97,261
839,8474	97,5989
840,8116	97,8591
841,7758	98,0401
842,7401	98,154
843,7043	98,2169
844,6685	98,2416
845,6328	98,2337
846,5970	98,1936
847,5612	98,1236
848,5255	98,0467
849,4897	97,9706
850,4539	97,9179
851,4182	97,9025
852,3824	97,9206
853,3466	97,9504
854,3109	97,9601
855,2751	97,9218
856,2393	97,8222
857,2036	97,6663
858,1678	97,4738
859,1320	97,2705
860,0963	97,0791
861,0605	96,9122
862,0247	96,7687
862,9890	96,6363
863,9532	96,4979
864,9174	96,3403
865,8817	96,1621
866,8459	95,9767
867,8101	95,8092
868,7744	95,6884
869,7386	95,6365
870,7028	95,6592
871,6671	95,7414
872,6313	95,8491
873,5955	95,9395
874,5598	95,9762
875,5240	95,9431
876,4882	95,8508
877,4525	95,7309
878,4167	95,6204
879,3809	95,5476
880,3452	95,5241
881,3094	95,5475
882,2736	95,6104
883,2379	95,7051
884,2021	95,8231
885,1663	95,95
886,1306	96,0651
887,0948	96,1492
888,0590	96,196
889,0233	96,2192
889,9875	96,246
890,9517	96,3015
891,9160	96,3931
892,8802	96,5064
893,8444	96,6152
894,8087	96,6982
895,7729	96,7507
896,7371	96,7835
897,7014	96,8128
898,6656	96,8488
899,6298	96,8929
900,5941	96,9427
901,5583	96,9987
902,5225	97,0662
903,4868	97,1516
904,4510	97,256
905,4152	97,3733
906,3795	97,4938
907,3437	97,6105
908,3079	97,7233
909,2722	97,8364
910,2364	97,952
911,2006	98,0647
912,1649	98,1624
913,1291	98,2312
914,0933	98,2632
915,0576	98,2601
916,0218	98,2333
916,9860	98,1979
917,9503	98,1669
918,9145	98,1465
919,8787	98,1358
920,8430	98,1288
921,8072	98,1185
922,7714	98,1001
923,7357	98,073
924,6999	98,0397
925,6641	98,004
926,6284	97,9674
927,5926	97,9291
928,5568	97,8867
929,5211	97,8383
930,4853	97,7847
931,4495	97,7289
932,4138	97,6745
933,3780	97,623
934,3422	97,5731
935,3065	97,5215
936,2707	97,4651
937,2349	97,4026
938,1992	97,3349
939,1634	97,2651
940,1276	97,1975
941,0919	97,1367
942,0561	97,0859
943,0203	97,0447
943,9846	97,0081
944,9488	96,9672
945,9130	96,9125
946,8773	96,8381
947,8415	96,7449
948,8057	96,6396
949,7700	96,5315
950,7342	96,4281
951,6984	96,3315
952,6627	96,2402
953,6269	96,1502
954,5911	96,0592
955,5554	95,9669
956,5196	95,8744
957,4838	95,7832
958,4481	95,694
959,4123	95,6079
960,3765	95,5272
961,3408	95,455
962,3050	95,3936
963,2692	95,3408
964,2335	95,2896
965,1977	95,2296
966,1619	95,1526
967,1262	95,0574
968,0904	94,9508
969,0546	94,8438
970,0189	94,7441
970,9831	94,651
971,9473	94,5561
972,9116	94,449
973,8758	94,3248
974,8400	94,1878
975,8043	94,0489
976,7685	93,9183
977,7327	93,7988
978,6970	93,6836
979,6612	93,5606
980,6254	93,4189
981,5897	93,2551
982,5539	93,0761
983,5181	92,8948
984,4824	92,7258
985,4466	92,579
986,4108	92,4562
987,3751	92,3508
988,3393	92,2521
989,3035	92,1499
990,2678	92,0396
991,2320	91,9228
992,1962	91,8064
993,1605	91,6993
994,1247	91,6093
995,0889	91,5418
996,0532	91,498
997,0174	91,4745
997,9816	91,4621
998,9459	91,447
999,9101	91,4145
1000,8743	91,3538
1001,8386	91,2613
1002,8028	91,1397
1003,7670	90,9956
1004,7313	90,8375
1005,6955	90,6734
1006,6597	90,5122
1007,6240	90,3622
1008,5882	90,2274
1009,5524	90,1033
1010,5167	89,9765
1011,4809	89,8309
1012,4451	89,6568
1013,4094	89,4572
1014,3736	89,2457
1015,3378	89,0386
1016,3021	88,8484
1017,2663	88,682
1018,2305	88,5448
1019,1948	88,4411
1020,1590	88,3669
1021,1232	88,2992
1022,0875	88,1934
1023,0517	87,9991
1024,0160	87,6902
1024,9802	87,2906
1025,9445	86,8755
1026,9087	86,5393
1027,8729	86,3453
1028,8372	86,2865
1029,8014	86,2829
1030,7656	86,2173
1031,7299	85,9877
1032,6941	85,5473
1033,6583	84,9168
1034,6226	84,1657
1035,5868	83,3808
1036,5510	82,6351
1037,5153	81,9705
1038,4795	81,3944
1039,4437	80,887
1040,4080	80,4164
1041,3722	79,9543
1042,3364	79,4879
1043,3007	79,0224
1044,2649	78,5729
1045,2291	78,1538
1046,1934	77,7712
1047,1576	77,4266
1048,1218	77,1249
1049,0861	76,8801
1050,0503	76,7097
1051,0145	76,621
1051,9788	76,5997
1052,9430	76,613
1053,9072	76,628
1054,8715	76,636
1055,8357	76,6638
1056,7999	76,7606
1057,7642	76,9637
1058,7284	77,2612
1059,6926	77,5774
1060,6569	77,7959
1061,6211	77,8124
1062,5853	77,5926
1063,5496	77,2012
1064,5138	76,7825
1065,4780	76,4975
1066,4423	76,4481
1067,4065	76,6298
1068,3707	76,9407
1069,3350	77,2391
1070,2992	77,4128
1071,2634	77,4217
1072,2277	77,2986
1073,1919	77,1164
1074,1561	76,9473
1075,1204	76,8369
1076,0846	76,8014
1077,0488	76,8403
1078,0131	76,9497
1078,9773	77,1288
1079,9415	77,3781
1080,9058	77,6951
1081,8700	78,0708
1082,8342	78,4889
1083,7985	78,9277
1084,7627	79,3656
1085,7269	79,79
1086,6912	80,2048
1087,6554	80,6302
1088,6196	81,0921
1089,5839	81,6045
1090,5481	82,1569
1091,5123	82,7152
1092,4766	83,2368
1093,4408	83,6909
1094,4050	84,0699
1095,3693	84,3865
1096,3335	84,6601
1097,2977	84,9047
1098,2620	85,1262
1099,2262	85,3297
1100,1904	85,5276
1101,1547	85,7409
1102,1189	85,9901
1103,0831	86,2834
1104,0474	86,6117
1105,0116	86,9533
1105,9758	87,2864
1106,9401	87,5996
1107,9043	87,8949
1108,8685	88,1814
1109,8328	88,467
1110,7970	88,752
1111,7612	89,0304
1112,7255	89,2949
1113,6897	89,5409
1114,6539	89,7685
1115,6182	89,9803
1116,5824	90,1787
1117,5466	90,3648
1118,5109	90,5388
1119,4751	90,7016
1120,4393	90,8552
1121,4036	91,0024
1122,3678	91,1463
1123,3320	91,2898
1124,2963	91,4347
1125,2605	91,5817
1126,2247	91,7291
1127,1890	91,874
1128,1532	92,0135
1129,1174	92,1467
1130,0817	92,2765
1131,0459	92,4078
1132,0101	92,5451
1132,9744	92,6887
1133,9386	92,8328
1134,9028	92,9679
1135,8671	93,0838
1136,8313	93,1748
1137,7955	93,2418
1138,7598	93,2905
1139,7240	93,3279
1140,6882	93,358
1141,6525	93,38
1142,6167	93,3908
1143,5809	93,3885
1144,5452	93,3748
1145,5094	93,355
1146,4736	93,3341
1147,4379	93,3131
1148,4021	93,2881
1149,3663	93,2532
1150,3306	93,2048
1151,2948	93,1455
1152,2590	93,0835
1153,2233	93,0288
1154,1875	92,9882
1155,1517	92,9634
1156,1160	92,9523
1157,0802	92,9516
1158,0444	92,9604
1159,0087	92,9795
1159,9729	93,0101
1160,9371	93,0512
1161,9014	93,099
1162,8656	93,1485
1163,8298	93,195
1164,7941	93,2359
1165,7583	93,2698
1166,7225	93,2952
1167,6868	93,3103
1168,6510	93,3136
1169,6152	93,3055
1170,5795	93,2891
1171,5437	93,2693
1172,5079	93,2518
1173,4722	93,2403
1174,4364	93,236
1175,4006	93,2374
1176,3649	93,2409
1177,3291	93,2421
1178,2933	93,2357
1179,2576	93,2169
1180,2218	93,1826
1181,1860	93,1329
1182,1503	93,0719
1183,1145	93,0068
1184,0787	92,945
1185,0430	92,8915
1186,0072	92,8471
1186,9714	92,8086
1187,9357	92,7714
1188,8999	92,7316
1189,8641	92,6879
1190,8284	92,6405
1191,7926	92,5904
1192,7568	92,538
1193,7211	92,4833
1194,6853	92,427
1195,6495	92,3702
1196,6138	92,3139
1197,5780	92,2572
1198,5422	92,1966
1199,5065	92,1269
1200,4707	92,0434
1201,4349	91,9442
1202,3992	91,8304
1203,3634	91,7054
1204,3276	91,5734
1205,2919	91,4382
1206,2561	91,3024
1207,2203	91,1672
1208,1846	91,0323
1209,1488	90,8958
1210,1130	90,7553
1211,0773	90,6096
1212,0415	90,4585
1213,0057	90,3021
1213,9700	90,1394
1214,9342	89,9675
1215,8984	89,7832
1216,8627	89,5865
1217,8269	89,3812
1218,7911	89,1737
1219,7554	88,9701
1220,7196	88,7737
1221,6838	88,5846
1222,6481	88,4015
1223,6123	88,223
1224,5765	88,0499
1225,5408	87,8844
1226,5050	87,7305
1227,4692	87,5938
1228,4335	87,4811
1229,3977	87,3991
1230,3619	87,3529
1231,3262	87,3452
1232,2904	87,3765
1233,2546	87,4436
1234,2189	87,536
1235,1831	87,6311
1236,1473	87,6953
1237,1116	87,6931
1238,0758	87,6057
1239,0400	87,4463
1240,0043	87,2614
1240,9685	87,1121
1241,9327	87,0437
1242,8970	87,0608
1243,8612	87,1252
1244,8254	87,1787
1245,7897	87,1758
1246,7539	87,1078
1247,7181	87,0021
1248,6824	86,9027
1249,6466	86,8458
1250,6108	86,8449
1251,5751	86,8911
1252,5393	86,9644
1253,5035	87,046
1254,4678	87,1244
1255,4320	87,1966
1256,3962	87,2655
1257,3605	87,3384
1258,3247	87,4244
1259,2889	87,5322
1260,2532	87,6662
1261,2174	87,8239
1262,1816	87,9966
1263,1459	88,1732
1264,1101	88,3443
1265,0743	88,5037
1266,0386	88,6472
1267,0028	88,7721
1267,9670	88,8766
1268,9313	88,9623
1269,8955	89,0352
1270,8597	89,1053
1271,8240	89,1828
1272,7882	89,2737
1273,7524	89,3763
1274,7167	89,4819
1275,6809	89,5782
1276,6451	89,6549
1277,6094	89,7077
1278,5736	89,7399
1279,5378	89,7606
1280,5021	89,7796
1281,4663	89,8018
1282,4305	89,8249
1283,3948	89,8404
1284,3590	89,8395
1285,3232	89,818
1286,2875	89,7797
1287,2517	89,7348
1288,2159	89,6947
1289,1802	89,6654
1290,1444	89,6441
1291,1086	89,622
1292,0729	89,5888
1293,0371	89,5391
1294,0013	89,4737
1294,9656	89,3989
1295,9298	89,3218
1296,8940	89,2471
1297,8583	89,1757
1298,8225	89,1053
1299,7867	89,0337
1300,7510	88,9599
1301,7152	88,8836
1302,6794	88,8058
1303,6437	88,7275
1304,6079	88,6495
1305,5721	88,5731
1306,5364	88,5001
1307,5006	88,4314
1308,4648	88,3665
1309,4291	88,3032
1310,3933	88,2398
1311,3575	88,1768
1312,3218	88,117
1313,2860	88,0635
1314,2502	88,0168
1315,2145	87,9738
1316,1787	87,9301
1317,1429	87,883
1318,1072	87,8343
1319,0714	87,7887
1320,0356	87,7491
1320,9999	87,7141
1321,9641	87,6796
1322,9283	87,6418
1323,8926	87,5993
1324,8568	87,552
1325,8210	87,4996
1326,7853	87,4393
1327,7495	87,3668
1328,7137	87,2786
1329,6780	87,1754
1330,6422	87,0622
1331,6064	86,9461
1332,5707	86,832
1333,5349	86,7176
1334,4991	86,5928
1335,4634	86,4418
1336,4276	86,2519
1337,3918	86,028
1338,3561	85,8057
1339,3203	85,6395
1340,2845	85,5616
1341,2488	85,5565
1342,2130	85,5818
1343,1772	85,6005
1344,1415	85,5922
1345,1057	85,5492
1346,0699	85,4725
1347,0342	85,371
1347,9984	85,2581
1348,9626	85,1464
1349,9269	85,0437
1350,8911	84,952
1351,8553	84,869
1352,8196	84,7909
1353,7838	84,7136
1354,7480	84,6341
1355,7123	84,5512
1356,6765	84,4642
1357,6407	84,3695
1358,6050	84,2564
1359,5692	84,1058
1360,5334	83,9016
1361,4977	83,6523
1362,4619	83,3964
1363,4261	83,1703
1364,3904	82,9761
1365,3546	82,7899
1366,3188	82,5888
1367,2831	82,364
1368,2473	82,1219
1369,2115	81,8763
1370,1758	81,6335
1371,1400	81,3804
1372,1042	81,0884
1373,0685	80,7388
1374,0327	80,3536
1374,9969	79,9973
1375,9612	79,7351
1376,9254	79,5942
1377,8896	79,5674
1378,8539	79,634
1379,8181	79,7707
1380,7823	79,9513
1381,7466	80,1487
1382,7108	80,3438
1383,6750	80,5334
1384,6393	80,7299
1385,6035	80,9537
1386,5677	81,2146
1387,5320	81,4803
1388,4962	81,6776
1389,4604	81,7498
1390,4247	81,7016
1391,3889	81,5827
1392,3531	81,4581
1393,3174	81,3996
1394,2816	81,4785
1395,2458	81,7308
1396,2101	82,1123
1397,1743	82,5107
1398,1385	82,8206
1399,1028	83
1400,0670	83,0665
1401,0313	83,0623
1401,9955	83,0267
1402,9597	82,9884
1403,9240	82,9686
1404,8882	82,9849
1405,8524	83,0453
1406,8167	83,1419
1407,7809	83,2609
1408,7451	83,3983
1409,7094	83,5619
1410,6736	83,7611
1411,6378	83,995
1412,6021	84,2514
1413,5663	84,5173
1414,5305	84,789
1415,4948	85,0653
1416,4590	85,339
1417,4232	85,6026
1418,3875	85,8534
1419,3517	86,0696
1420,3159	86,2089
1421,2802	86,2641
1422,2444	86,2783
1423,2086	86,3026
1424,1729	86,3604
1425,1371	86,4441
1426,1013	86,5276
1427,0656	86,5821
1428,0298	86,5857
1428,9940	86,5334
1429,9583	86,4457
1430,9225	86,3617
1431,8867	86,3195
1432,8510	86,3355
1433,8152	86,3943
1434,7794	86,453
1435,7437	86,4712
1436,7079	86,4422
1437,6721	86,3779
1438,6364	86,2843
1439,6006	86,1796
1440,5648	86,0947
1441,5291	86,0469
1442,4933	86,026
1443,4575	86,0023
1444,4218	85,9445
1445,3860	85,8328
1446,3502	85,6633
1447,3145	85,4441
1448,2787	85,1877
1449,2429	84,905
1450,2072	84,6115
1451,1714	84,3374
1452,1356	84,1217
1453,0999	83,9834
1454,0641	83,888
1455,0283	83,7415
1455,9926	83,4834
1456,9568	83,2537
1457,9210	83,2138
1458,8853	83,2062
1459,8495	83,0673
1460,8137	82,8121
1461,7780	82,4632
1462,7422	81,9715
1463,7064	81,2941
1464,6707	80,5403
1465,6349	79,981
1466,5991	79,83
1467,5634	80,1109
1468,5276	80,7588
1469,4918	81,7237
1470,4561	82,9872
1471,4203	84,54
1472,3845	86,3125
1473,3488	88,058
1474,3130	89,4353
1475,2772	90,3288
1476,2415	90,8769
1477,2057	91,2495
1478,1699	91,5416
1479,1342	91,7884
1480,0984	92,0019
1481,0626	92,191
1482,0269	92,362
1482,9911	92,5142
1483,9553	92,6403
1484,9196	92,7247
1485,8838	92,7381
1486,8480	92,6458
1487,8123	92,4618
1488,7765	92,316
1489,7407	92,3568
1490,7050	92,5487
1491,6692	92,7506
1492,6334	92,902
