TITLE	CA
DATA TYPE	INFRARED SPECTRUM
ORIGIN	JASCO
OWNER	
DATE	24/11/05
TIME	12:01:37
SPECTROMETER/DATA SYSTEM	
LOCALE	3082
RESOLUTION	
DELTAX	0,964233
XUNITS	1/CM
YUNITS	TRANSMITTANCE
FIRSTX	  399,1927
LASTX	 4000,6047
NPOINTS	    3736
FIRSTY	    68,00873
MAXY	    99,03922
MINY	    16,35128
XYDATA
399,1927	68,0087
400,1569	72,0082
401,1211	77,9214
402,0854	83,7952
403,0496	88,5234
404,0138	91,4866
404,9781	92,3639
405,9423	91,2606
406,9065	88,8187
407,8708	86,0305
408,8350	83,8199
409,7992	82,7008
410,7635	82,6596
411,7277	83,2312
412,6919	83,7583
413,6562	83,7292
414,6204	82,9522
415,5846	81,5155
416,5489	79,736
417,5131	78,2361
418,4773	77,8937
419,4416	79,0199
420,4058	80,553
421,3700	81,1759
422,3343	80,5197
423,2985	78,8901
424,2627	76,8009
425,2270	74,8097
426,1912	73,4018
427,1554	72,847
428,1197	73,1349
429,0839	74,0365
430,0481	75,2225
431,0124	76,3752
431,9766	77,2798
432,9408	77,872
433,9051	78,2165
434,8693	78,4227
435,8335	78,5493
436,7978	78,5613
437,7620	78,3696
438,7262	77,9104
439,6905	77,1961
440,6547	76,3115
441,6189	75,3688
442,5832	74,4361
443,5474	73,4802
444,5116	72,3899
445,4759	71,0967
446,4401	69,696
447,4043	68,4609
448,3686	67,7499
449,3328	67,8626
450,2970	68,8903
451,2613	70,6174
452,2255	72,5412
453,1897	74,0316
454,1540	74,5431
455,1182	73,7755
456,0824	71,783
457,0467	69,0611
458,0109	66,4769
458,9751	64,8473
459,9394	64,4342
460,9036	64,9231
461,8678	65,8129
462,8321	66,7201
463,7963	67,4406
464,7605	67,8924
465,7248	68,0488
466,6890	67,8949
467,6532	67,4156
468,6175	66,6096
469,5817	65,5206
470,5459	64,2767
471,5102	63,1062
472,4744	62,2788
473,4386	61,9705
474,4029	62,1737
475,3671	62,7407
476,3313	63,4812
477,2956	64,208
478,2598	64,7404
479,2240	64,9243
480,1883	64,6888
481,1525	64,1077
482,1167	63,4106
483,0810	62,9116
484,0452	62,8638
485,0094	63,3141
485,9737	64,0792
486,9379	64,8739
487,9021	65,4685
488,8664	65,7536
489,8306	65,7211
490,7948	65,4315
491,7591	64,9952
492,7233	64,5466
493,6875	64,1848
494,6518	63,9085
495,6160	63,6098
496,5802	63,163
497,5445	62,569
498,5087	62,0655
499,4729	62,0993
500,4372	63,101
501,4014	65,1141
502,3656	67,5321
503,3299	69,2839
504,2941	69,4666
505,2583	67,9252
506,2226	65,321
507,1868	62,7225
508,1510	61,0502
509,1153	60,6795
510,0795	61,3789
511,0437	62,5708
512,0080	63,6977
512,9722	64,451
513,9365	64,7755
514,9007	64,7478
515,8649	64,4642
516,8292	64,0112
517,7934	63,4954
518,7576	63,0502
519,7219	62,7772
520,6861	62,6857
521,6503	62,7049
522,6146	62,7441
523,5788	62,7457
524,5430	62,7077
525,5073	62,6737
526,4715	62,6936
527,4357	62,7788
528,4000	62,8919
529,3642	62,9729
530,3284	62,9678
531,2927	62,8431
532,2569	62,5911
533,2211	62,2367
534,1854	61,8413
535,1496	61,4942
536,1138	61,2884
537,0781	61,2847
538,0423	61,4805
539,0065	61,7996
539,9708	62,1156
540,9350	62,3039
541,8992	62,2944
542,8635	62,0985
543,8277	61,7978
544,7919	61,5015
545,7562	61,2921
546,7204	61,1885
547,6846	61,1458
548,6489	61,0938
549,6131	60,9855
550,5773	60,8236
551,5416	60,6536
552,5058	60,5345
553,4700	60,5105
554,4343	60,5977
555,3985	60,7847
556,3627	61,0396
557,3270	61,3149
558,2912	61,5475
559,2554	61,6654
560,2197	61,606
561,1839	61,3474
562,1481	60,9345
563,1124	60,4797
564,0766	60,124
565,0408	59,9764
566,0051	60,0584
566,9693	60,2868
567,9335	60,5111
568,8978	60,5971
569,8620	60,5077
570,8262	60,3178
571,7905	60,1536
572,7547	60,105
573,7189	60,1703
574,6832	60,2575
575,6474	60,2424
576,6116	60,0507
577,5759	59,7096
578,5401	59,3309
579,5043	59,0432
580,4686	58,9295
581,4328	59,0043
582,3970	59,2303
583,3613	59,552
584,3255	59,9201
585,2897	60,2956
586,2540	60,6437
587,2182	60,9355
588,1824	61,1615
589,1467	61,347
590,1109	61,55
591,0751	61,8332
592,0394	62,2189
593,0036	62,6622
593,9678	63,0719
594,9321	63,3671
595,8963	63,5245
596,8605	63,5855
597,8248	63,6304
598,7890	63,735
599,7532	63,9311
600,7175	64,1893
601,6817	64,4362
602,6459	64,5957
603,6102	64,6266
604,5744	64,5385
605,5386	64,3823
606,5029	64,2252
607,4671	64,1232
608,4313	64,1035
609,3956	64,1633
610,3598	64,2818
611,3240	64,4352
612,2883	64,6041
613,2525	64,7729
614,2167	64,9249
615,1810	65,0412
616,1452	65,1089
617,1094	65,1304
618,0737	65,1256
619,0379	65,1207
620,0021	65,1329
620,9664	65,165
621,9306	65,2119
622,8948	65,2742
623,8591	65,3644
624,8233	65,4993
625,7875	65,6833
626,7518	65,8936
627,7160	66,0869
628,6802	66,2223
629,6445	66,2868
630,6087	66,3024
631,5729	66,3123
632,5372	66,3534
633,5014	66,4321
634,4656	66,5234
635,4299	66,5939
636,3941	66,6327
637,3583	66,6631
638,3226	66,7251
639,2868	66,8424
640,2510	67,0006
641,2153	67,1529
642,1795	67,2498
643,1437	67,2694
644,1080	67,2247
645,0722	67,1464
646,0364	67,0565
647,0007	66,956
647,9649	66,8344
648,9291	66,6907
649,8934	66,5447
650,8576	66,4288
651,8218	66,3686
652,7861	66,371
653,7503	66,428
654,7145	66,5286
655,6788	66,6659
656,6430	66,8355
657,6072	67,0292
658,5715	67,2333
659,5357	67,4316
660,4999	67,6108
661,4642	67,7636
662,4284	67,8875
663,3926	67,9831
664,3569	68,0553
665,3211	68,1196
666,2853	68,2114
667,2496	68,383
668,2138	68,657
669,1780	68,9677
670,1423	69,2172
671,1065	69,3739
672,0707	69,465
673,0350	69,5324
673,9992	69,6132
674,9634	69,7312
675,9277	69,8878
676,8919	70,0594
677,8561	70,2097
678,8204	70,3103
679,7846	70,3539
680,7488	70,3537
681,7131	70,3355
682,6773	70,3267
683,6415	70,349
684,6058	70,4174
685,5700	70,5406
686,5342	70,7168
687,4985	70,9262
688,4627	71,1269
689,4269	71,2658
690,3912	71,3036
691,3554	71,2393
692,3196	71,1145
693,2839	70,9926
694,2481	70,9222
695,2123	70,9097
696,1766	70,9181
697,1408	70,8949
698,1050	70,8108
699,0693	70,6806
700,0335	70,5513
700,9977	70,4677
701,9620	70,4417
702,9262	70,4469
703,8904	70,4395
704,8547	70,3904
705,8189	70,3026
706,7831	70,2041
707,7474	70,1227
708,7116	70,0641
709,6758	70,0108
710,6401	69,9382
711,6043	69,8346
712,5685	69,7102
713,5328	69,5894
714,4970	69,4955
715,4612	69,4308
716,4255	69,4039
717,3897	69,3902
718,3539	69,3685
719,3182	69,3192
720,2824	69,2288
721,2466	69,0952
722,2109	68,9287
723,1751	68,7472
724,1393	68,5661
725,1036	68,3901
726,0678	68,2107
727,0320	68,0138
727,9963	67,791
728,9605	67,5471
729,9247	67,298
730,8890	67,0597
731,8532	66,8357
732,8174	66,6138
733,7817	66,3732
734,7459	66,0967
735,7101	65,782
736,6744	65,4433
737,6386	65,1077
738,6028	64,8078
739,5671	64,5777
740,5313	64,4503
741,4955	64,4569
742,4598	64,6232
743,4240	64,962
744,3882	65,4653
745,3525	66,0999
746,3167	66,8122
747,2809	67,541
748,2452	68,2338
749,2094	68,8587
750,1736	69,4056
751,1379	69,8772
752,1021	70,2761
753,0663	70,5985
754,0306	70,8378
754,9948	70,9953
755,9590	71,0873
756,9233	71,1424
757,8875	71,1873
758,8517	71,2318
759,8160	71,2633
760,7802	71,254
761,7444	71,1783
762,7087	71,0275
763,6729	70,8155
764,6371	70,5724
765,6014	70,3322
766,5656	70,1209
767,5298	69,9512
768,4941	69,8228
769,4583	69,7256
770,4225	69,6451
771,3868	69,567
772,3510	69,4835
773,3152	69,3979
774,2795	69,327
775,2437	69,2982
776,2079	69,3403
777,1722	69,4726
778,1364	69,6975
779,1006	70,0002
780,0649	70,3569
781,0291	70,7475
781,9933	71,1648
782,9576	71,6165
783,9218	72,1168
784,8860	72,674
785,8503	73,2796
786,8145	73,9072
787,7787	74,5218
788,7430	75,0972
789,7072	75,629
790,6714	76,1378
791,6357	76,6572
792,5999	77,2129
793,5641	77,806
794,5284	78,4099
795,4926	78,9838
796,4568	79,4946
797,4211	79,9339
798,3853	80,3201
799,3495	80,6869
800,3138	81,0664
801,2780	81,4787
802,2422	81,9314
803,2065	82,4254
804,1707	82,9587
805,1349	83,5251
806,0992	84,1117
807,0634	84,6996
808,0276	85,2702
808,9919	85,8145
809,9561	86,336
810,9203	86,8475
811,8846	87,3626
812,8488	87,8884
813,8130	88,4229
814,7773	88,9578
815,7415	89,4819
816,7057	89,9841
817,6700	90,4546
818,6342	90,8865
819,5984	91,2777
820,5627	91,6313
821,5269	91,9545
822,4911	92,2548
823,4554	92,5367
824,4196	92,8008
825,3839	93,0449
826,3481	93,2671
827,3123	93,4677
828,2766	93,651
829,2408	93,8246
830,2050	93,9989
831,1693	94,1819
832,1335	94,3758
833,0977	94,5731
834,0620	94,759
835,0262	94,9191
835,9904	95,0472
836,9547	95,1498
837,9189	95,2418
838,8831	95,3365
839,8474	95,4364
840,8116	95,531
841,7758	95,602
842,7401	95,633
843,7043	95,6158
844,6685	95,5516
845,6328	95,4482
846,5970	95,3161
847,5612	95,1668
848,5255	95,0123
849,4897	94,8647
850,4539	94,7333
851,4182	94,6221
852,3824	94,5296
853,3466	94,4514
854,3109	94,3863
855,2751	94,3405
856,2393	94,3278
857,2036	94,3646
858,1678	94,4616
859,1320	94,6179
860,0963	94,8206
861,0605	95,0503
862,0247	95,2892
862,9890	95,5271
863,9532	95,7612
864,9174	95,9918
865,8817	96,2176
866,8459	96,4328
867,8101	96,629
868,7744	96,7984
869,7386	96,9366
870,7028	97,0438
871,6671	97,125
872,6313	97,1904
873,5955	97,2533
874,5598	97,3283
875,5240	97,4258
876,4882	97,5482
877,4525	97,6885
878,4167	97,8344
879,3809	97,9736
880,3452	98,0994
881,3094	98,2115
882,2736	98,3134
883,2379	98,408
884,2021	98,4952
885,1663	98,5724
886,1306	98,6366
887,0948	98,6874
888,0590	98,728
889,0233	98,7646
889,9875	98,8036
890,9517	98,8488
891,9160	98,8981
892,8802	98,9438
893,8444	98,9762
894,8087	98,9885
895,7729	98,9808
896,7371	98,9605
897,7014	98,938
898,6656	98,9337
899,6298	98,9675
900,5941	99,0013
901,5583	99,0273
902,5225	99,0392
903,4868	99,0347
904,4510	99,0146
905,4152	98,982
906,3795	98,9405
907,3437	98,8929
908,3079	98,8396
909,2722	98,7766
910,2364	98,6956
911,2006	98,5871
912,1649	98,4447
913,1291	98,27
914,0933	98,0726
915,0576	97,8669
916,0218	97,6658
916,9860	97,4769
917,9503	97,3016
918,9145	97,1372
919,8787	96,9799
920,8430	96,8261
921,8072	96,6723
922,7714	96,5153
923,7357	96,3535
924,6999	96,1882
925,6641	96,0239
926,6284	95,8658
927,5926	95,7152
928,5568	95,5665
929,5211	95,4079
930,4853	95,2262
931,4495	95,0132
932,4138	94,7694
933,3780	94,5033
934,3422	94,2269
935,3065	93,9505
936,2707	93,6801
937,2349	93,4182
938,1992	93,1651
939,1634	92,9198
940,1276	92,6795
941,0919	92,4394
942,0561	92,1943
943,0203	91,9423
943,9846	91,6889
944,9488	91,4473
945,9130	91,2347
946,8773	91,0652
947,8415	90,9431
948,8057	90,8609
949,7700	90,8021
950,7342	90,7481
951,6984	90,6837
952,6627	90,6008
953,6269	90,4983
954,5911	90,3783
955,5554	90,243
956,5196	90,0917
957,4838	89,9199
958,4481	89,7216
959,4123	89,4943
960,3765	89,2428
961,3408	88,9822
962,3050	88,7343
963,2692	88,5207
964,2335	88,3545
965,1977	88,2356
966,1619	88,1523
967,1262	88,0885
968,0904	88,0314
969,0546	87,9761
970,0189	87,925
970,9831	87,8835
971,9473	87,8556
972,9116	87,8418
973,8758	87,8395
974,8400	87,8437
975,8043	87,8471
976,7685	87,8398
977,7327	87,8098
978,6970	87,7464
979,6612	87,6437
980,6254	87,5028
981,5897	87,3307
982,5539	87,1355
983,5181	86,922
984,4824	86,69
985,4466	86,4368
986,4108	86,1625
987,3751	85,8741
988,3393	85,5859
989,3035	85,3157
990,2678	85,0786
991,2320	84,8818
992,1962	84,7217
993,1605	84,5862
994,1247	84,4589
995,0889	84,3251
996,0532	84,1765
997,0174	84,0135
997,9816	83,8426
998,9459	83,6728
999,9101	83,5088
1000,8743	83,3479
1001,8386	83,1808
1002,8028	82,9967
1003,7670	82,7907
1004,7313	82,5686
1005,6955	82,3452
1006,6597	82,1371
1007,6240	81,9531
1008,5882	81,7885
1009,5524	81,6254
1010,5167	81,4403
1011,4809	81,2143
1012,4451	80,9399
1013,4094	80,6228
1014,3736	80,2769
1015,3378	79,9184
1016,3021	79,5598
1017,2663	79,2078
1018,2305	78,8634
1019,1948	78,5228
1020,1590	78,1795
1021,1232	77,8244
1022,0875	77,4477
1023,0517	77,0406
1024,0160	76,5981
1024,9802	76,1202
1025,9445	75,6117
1026,9087	75,0798
1027,8729	74,532
1028,8372	73,9739
1029,8014	73,4095
1030,7656	72,8417
1031,7299	72,273
1032,6941	71,7042
1033,6583	71,133
1034,6226	70,5553
1035,5868	69,9671
1036,5510	69,3696
1037,5153	68,7701
1038,4795	68,1807
1039,4437	67,6138
1040,4080	67,0774
1041,3722	66,5753
1042,3364	66,1113
1043,3007	65,6943
1044,2649	65,3413
1045,2291	65,0745
1046,1934	64,9154
1047,1576	64,8782
1048,1218	64,9672
1049,0861	65,1759
1050,0503	65,4895
1051,0145	65,8864
1051,9788	66,34
1052,9430	66,8214
1053,9072	67,3017
1054,8715	67,7557
1055,8357	68,164
1056,7999	68,513
1057,7642	68,7951
1058,7284	69,0074
1059,6926	69,1522
1060,6569	69,2361
1061,6211	69,269
1062,5853	69,2615
1063,5496	69,2236
1064,5138	69,1638
1065,4780	69,0901
1066,4423	69,0102
1067,4065	68,9314
1068,3707	68,8597
1069,3350	68,7989
1070,2992	68,7492
1071,2634	68,708
1072,2277	68,6693
1073,1919	68,6238
1074,1561	68,5612
1075,1204	68,473
1076,0846	68,3574
1077,0488	68,2222
1078,0131	68,0823
1078,9773	67,9532
1079,9415	67,8427
1080,9058	67,7465
1081,8700	67,6514
1082,8342	67,5434
1083,7985	67,4175
1084,7627	67,2816
1085,7269	67,1522
1086,6912	67,0456
1087,6554	66,9678
1088,6196	66,9101
1089,5839	66,8522
1090,5481	66,7699
1091,5123	66,6444
1092,4766	66,4685
1093,4408	66,248
1094,4050	65,9993
1095,3693	65,7428
1096,3335	65,4974
1097,2977	65,2755
1098,2620	65,0821
1099,2262	64,9161
1100,1904	64,7747
1101,1547	64,6568
1102,1189	64,5653
1103,0831	64,5051
1104,0474	64,4804
1105,0116	64,4907
1105,9758	64,5296
1106,9401	64,586
1107,9043	64,6479
1108,8685	64,7047
1109,8328	64,75
1110,7970	64,7809
1111,7612	64,7974
1112,7255	64,8016
1113,6897	64,7971
1114,6539	64,7882
1115,6182	64,7787
1116,5824	64,7699
1117,5466	64,759
1118,5109	64,7399
1119,4751	64,706
1120,4393	64,6538
1121,4036	64,5863
1122,3678	64,513
1123,3320	64,4462
1124,2963	64,3965
1125,2605	64,3683
1126,2247	64,358
1127,1890	64,3557
1128,1532	64,3492
1129,1174	64,3282
1130,0817	64,2872
1131,0459	64,2261
1132,0101	64,1497
1132,9744	64,0651
1133,9386	63,9796
1134,9028	63,8985
1135,8671	63,8242
1136,8313	63,7555
1137,7955	63,6881
1138,7598	63,6152
1139,7240	63,5288
1140,6882	63,4225
1141,6525	63,2921
1142,6167	63,1373
1143,5809	62,9607
1144,5452	62,7665
1145,5094	62,5585
1146,4736	62,3399
1147,4379	62,1142
1148,4021	61,8878
1149,3663	61,6713
1150,3306	61,4799
1151,2948	61,3315
1152,2590	61,2426
1153,2233	61,2234
1154,1875	61,2736
1155,1517	61,3807
1156,1160	61,5225
1157,0802	61,672
1158,0444	61,8052
1159,0087	61,9058
1159,9729	61,9671
1160,9371	61,989
1161,9014	61,9721
1162,8656	61,915
1163,8298	61,8136
1164,7941	61,6647
1165,7583	61,4702
1166,7225	61,2384
1167,6868	60,9817
1168,6510	60,7125
1169,6152	60,4385
1170,5795	60,1625
1171,5437	59,8834
1172,5079	59,6009
1173,4722	59,3172
1174,4364	59,0378
1175,4006	58,7698
1176,3649	58,5195
1177,3291	58,2909
1178,2933	58,0854
1179,2576	57,902
1180,2218	57,7371
1181,1860	57,585
1182,1503	57,4392
1183,1145	57,294
1184,0787	57,1464
1185,0430	56,9971
1186,0072	56,8494
1186,9714	56,7073
1187,9357	56,5739
1188,8999	56,4503
1189,8641	56,3373
1190,8284	56,2359
1191,7926	56,148
1192,7568	56,0758
1193,7211	56,0199
1194,6853	55,9796
1195,6495	55,9529
1196,6138	55,9372
1197,5780	55,9301
1198,5422	55,9278
1199,5065	55,9247
1200,4707	55,9124
1201,4349	55,8817
1202,3992	55,8236
1203,3634	55,7318
1204,3276	55,6036
1205,2919	55,4393
1206,2561	55,2422
1207,2203	55,0167
1208,1846	54,7682
1209,1488	54,5023
1210,1130	54,2255
1211,0773	53,9458
1212,0415	53,6738
1213,0057	53,4217
1213,9700	53,2015
1214,9342	53,0227
1215,8984	52,89
1216,8627	52,8034
1217,8269	52,7585
1218,7911	52,7479
1219,7554	52,7624
1220,7196	52,7913
1221,6838	52,8235
1222,6481	52,8484
1223,6123	52,8577
1224,5765	52,8474
1225,5408	52,8189
1226,5050	52,7764
1227,4692	52,7236
1228,4335	52,6607
1229,3977	52,5844
1230,3619	52,491
1231,3262	52,3803
1232,2904	52,2577
1233,2546	52,1313
1234,2189	52,0072
1235,1831	51,8866
1236,1473	51,7657
1237,1116	51,6403
1238,0758	51,5094
1239,0400	51,3761
1240,0043	51,2445
1240,9685	51,1164
1241,9327	50,9894
1242,8970	50,8587
1243,8612	50,7213
1244,8254	50,5779
1245,7897	50,4328
1246,7539	50,291
1247,7181	50,1558
1248,6824	50,0276
1249,6466	49,9057
1250,6108	49,7888
1251,5751	49,6767
1252,5393	49,57
1253,5035	49,4687
1254,4678	49,3717
1255,4320	49,2752
1256,3962	49,1726
1257,3605	49,056
1258,3247	48,9198
1259,2889	48,7639
1260,2532	48,5959
1261,2174	48,4273
1262,1816	48,2672
1263,1459	48,117
1264,1101	47,9693
1265,0743	47,8136
1266,0386	47,6421
1267,0028	47,4543
1267,9670	47,2564
1268,9313	47,0563
1269,8955	46,8588
1270,8597	46,6627
1271,8240	46,4623
1272,7882	46,2504
1273,7524	46,0206
1274,7167	45,7693
1275,6809	45,4938
1276,6451	45,1924
1277,6094	44,8637
1278,5736	44,5081
1279,5378	44,1285
1280,5021	43,7318
1281,4663	43,3276
1282,4305	42,9268
1283,3948	42,5386
1284,3590	42,1695
1285,3232	41,8237
1286,2875	41,5061
1287,2517	41,2241
1288,2159	40,9887
1289,1802	40,8112
1290,1444	40,6997
1291,1086	40,6565
1292,0729	40,6789
1293,0371	40,7622
1294,0013	40,9006
1294,9656	41,0866
1295,9298	41,3094
1296,8940	41,5547
1297,8583	41,806
1298,8225	42,0486
1299,7867	42,272
1300,7510	42,4699
1301,7152	42,6389
1302,6794	42,7765
1303,6437	42,8802
1304,6079	42,9482
1305,5721	42,9808
1306,5364	42,9813
1307,5006	42,9558
1308,4648	42,9106
1309,4291	42,8503
1310,3933	42,7771
1311,3575	42,6915
1312,3218	42,5942
1313,2860	42,4862
1314,2502	42,3686
1315,2145	42,2407
1316,1787	42,1007
1317,1429	41,9467
1318,1072	41,7801
1319,0714	41,606
1320,0356	41,4317
1320,9999	41,263
1321,9641	41,1022
1322,9283	40,9491
1323,8926	40,8031
1324,8568	40,6638
1325,8210	40,5311
1326,7853	40,4038
1327,7495	40,2799
1328,7137	40,1577
1329,6780	40,0373
1330,6422	39,9206
1331,6064	39,8099
1332,5707	39,7056
1333,5349	39,6048
1334,4991	39,5011
1335,4634	39,385
1336,4276	39,2433
1337,3918	39,0628
1338,3561	38,8362
1339,3203	38,5718
1340,2845	38,2914
1341,2488	38,0145
1342,2130	37,7457
1343,1772	37,4766
1344,1415	37,1956
1345,1057	36,8945
1346,0699	36,5716
1347,0342	36,2319
1347,9984	35,8846
1348,9626	35,5412
1349,9269	35,2124
1350,8911	34,9064
1351,8553	34,6289
1352,8196	34,3854
1353,7838	34,1841
1354,7480	34,0364
1355,7123	33,9523
1356,6765	33,9348
1357,6407	33,9775
1358,6050	34,0704
1359,5692	34,2057
1360,5334	34,3784
1361,4977	34,5791
1362,4619	34,7866
1363,4261	34,973
1364,3904	35,1203
1365,3546	35,2267
1366,3188	35,2998
1367,2831	35,3472
1368,2473	35,3738
1369,2115	35,3822
1370,1758	35,3729
1371,1400	35,3437
1372,1042	35,29
1373,0685	35,2087
1374,0327	35,1039
1374,9969	34,9896
1375,9612	34,8815
1376,9254	34,7863
1377,8896	34,7011
1378,8539	34,6216
1379,8181	34,5488
1380,7823	34,4894
1381,7466	34,4499
1382,7108	34,4323
1383,6750	34,4344
1384,6393	34,4568
1385,6035	34,5076
1386,5677	34,5998
1387,5320	34,7385
1388,4962	34,9129
1389,4604	35,1088
1390,4247	35,3245
1391,3889	35,5737
1392,3531	35,8758
1393,3174	36,2432
1394,2816	36,6693
1395,2458	37,1273
1396,2101	37,5891
1397,1743	38,0443
1398,1385	38,4952
1399,1028	38,9361
1400,0670	39,3501
1401,0313	39,7237
1401,9955	40,058
1402,9597	40,3666
1403,9240	40,6632
1404,8882	40,9479
1405,8524	41,2051
1406,8167	41,4165
1407,7809	41,5754
1408,7451	41,6871
1409,7094	41,7589
1410,6736	41,7941
1411,6378	41,7954
1412,6021	41,7695
1413,5663	41,7255
1414,5305	41,6667
1415,4948	41,5821
1416,4590	41,4459
1417,4232	41,2319
1418,3875	40,9492
1419,3517	40,6561
1420,3159	40,4061
1421,2802	40,1962
1422,2444	39,9886
1423,2086	39,754
1424,1729	39,4897
1425,1371	39,214
1426,1013	38,9445
1427,0656	38,6826
1428,0298	38,416
1428,9940	38,138
1429,9583	37,8644
1430,9225	37,6295
1431,8867	37,4596
1432,8510	37,3574
1433,8152	37,3097
1434,7794	37,3045
1435,7437	37,3386
1436,7079	37,4113
1437,6721	37,5107
1438,6364	37,6147
1439,6006	37,7058
1440,5648	37,775
1441,5291	37,8172
1442,4933	37,8264
1443,4575	37,7953
1444,4218	37,7162
1445,3860	37,582
1446,3502	37,3893
1447,3145	37,1441
1448,2787	36,8665
1449,2429	36,5861
1450,2072	36,3277
1451,1714	36,1023
1452,1356	35,9088
1453,0999	35,7392
1454,0641	35,5762
1455,0283	35,3794
1455,9926	35,0768
1456,9568	34,6349
1457,9210	34,185
1458,8853	33,8793
1459,8495	33,7068
1460,8137	33,5911
1461,7780	33,4727
1462,7422	33,3118
1463,7064	33,0893
1464,6707	32,8241
1465,6349	32,5746
1466,5991	32,3914
1467,5634	32,279
1468,5276	32,2119
1469,4918	32,1634
1470,4561	32,1148
1471,4203	32,0555
1472,3845	31,984
1473,3488	31,913
1474,3130	31,8587
1475,2772	31,8222
1476,2415	31,7922
1477,2057	31,7577
1478,1699	31,711
1479,1342	31,6472
1480,0984	31,5654
1481,0626	31,4685
1482,0269	31,3641
1482,9911	31,2611
1483,9553	31,1664
1484,9196	31,082
1485,8838	31,0039
1486,8480	30,923
1487,8123	30,8281
1488,7765	30,7171
1489,7407	30,6061
1490,7050	30,5116
1491,6692	30,4291
1492,6334	30,3407
