TITLE	N-GQD_BC
DATA TYPE	INFRARED SPECTRUM
ORIGIN	JASCO
OWNER	
DATE	24/11/25
TIME	19:08:09
SPECTROMETER/DATA SYSTEM	
LOCALE	3082
RESOLUTION	
DELTAX	0,964233
XUNITS	1/CM
YUNITS	TRANSMITTANCE
FIRSTX	  399,1927
LASTX	 4000,6047
NPOINTS	    3736
FIRSTY	    87,00690
MAXY	   100,03275
MINY	    78,27451
XYDATA
399,1927	87,0069
400,1569	89,5232
401,1211	91,2376
402,0854	92,1689
403,0496	92,6875
404,0138	93,1503
404,9781	93,798
405,9423	94,7117
406,9065	95,7712
407,8708	96,6752
408,8350	97,0737
409,7992	96,7644
410,7635	95,8477
411,7277	94,718
412,6919	93,845
413,6562	93,5068
414,6204	93,7004
415,5846	94,2309
416,5489	94,8139
417,5131	95,1271
418,4773	94,9249
419,4416	94,3113
420,4058	93,7475
421,3700	93,57
422,3343	93,797
423,2985	94,3239
424,2627	95,0451
425,2270	95,8518
426,1912	96,6227
427,1554	97,2533
428,1197	97,6946
429,0839	97,9526
430,0481	98,0545
431,0124	98,0142
431,9766	97,8242
432,9408	97,4792
433,9051	97,0102
434,8693	96,5028
435,8335	96,0751
436,7978	95,8272
437,7620	95,7994
438,7262	95,9732
439,6905	96,3019
440,6547	96,7346
441,6189	97,211
442,5832	97,6416
443,5474	97,9061
444,5116	97,9013
445,4759	97,6072
446,4401	97,1127
447,4043	96,5793
448,3686	96,174
449,3328	96,0046
450,2970	96,0757
451,2613	96,2826
452,2255	96,4635
453,1897	96,491
454,1540	96,3425
455,1182	96,1016
456,0824	95,8942
457,0467	95,792
458,0109	95,7392
458,9751	95,5811
459,9394	95,2025
460,9036	94,6306
461,8678	94,0071
462,8321	93,495
463,7963	93,1964
464,7605	93,099
465,7248	93,0645
466,6890	92,8886
467,6532	92,4151
468,6175	91,6331
469,5817	90,6986
470,5459	89,8803
471,5102	89,4415
472,4744	89,4901
473,4386	89,9004
474,4029	90,4091
475,3671	90,804
476,3313	91,0231
477,2956	91,1181
478,2598	91,1688
479,2240	91,2247
480,1883	91,2956
481,1525	91,3758
482,1167	91,4684
483,0810	91,5828
484,0452	91,7132
485,0094	91,8316
485,9737	91,9169
486,9379	91,9917
487,9021	92,118
488,8664	92,3473
489,8306	92,6671
490,7948	92,9912
491,7591	93,2137
492,7233	93,2952
493,6875	93,2953
494,6518	93,3103
495,6160	93,3778
496,5802	93,4587
497,5445	93,5242
498,5087	93,672
499,4729	94,1529
500,4372	95,2311
501,4014	96,9174
502,3656	98,774
503,3299	100,033
504,2941	100,031
505,2583	98,6463
506,2226	96,3846
507,1868	94,0911
508,1510	92,4917
509,1153	91,8628
510,0795	92,0064
511,0437	92,4884
512,0080	92,9261
512,9722	93,1331
513,9365	93,092
514,9007	92,8426
515,8649	92,396
516,8292	91,7394
517,7934	90,9105
518,7576	90,045
519,7219	89,3172
520,6861	88,8314
521,6503	88,5772
522,6146	88,465
523,5788	88,3846
524,5430	88,2496
525,5073	88,0237
526,4715	87,7218
527,4357	87,3835
528,4000	87,037
529,3642	86,6852
530,3284	86,3171
531,2927	85,9316
532,2569	85,5527
533,2211	85,2271
534,1854	85,0031
535,1496	84,8997
536,1138	84,889
537,0781	84,9022
538,0423	84,8599
539,0065	84,7075
539,9708	84,4355
540,9350	84,0745
541,8992	83,6732
542,8635	83,2787
543,8277	82,9288
544,7919	82,6565
545,7562	82,4944
546,7204	82,4708
547,6846	82,5984
548,6489	82,8656
549,6131	83,2384
550,5773	83,6737
551,5416	84,1344
552,5058	84,5996
553,4700	85,0656
554,4343	85,5421
555,3985	86,0445
556,3627	86,586
557,3270	87,1695
558,2912	87,7827
559,2554	88,3985
560,2197	88,9831
561,1839	89,5077
562,1481	89,9613
563,1124	90,3588
564,0766	90,7383
565,0408	91,1492
566,0051	91,6337
566,9693	92,2088
567,9335	92,8567
568,8978	93,5302
569,8620	94,1752
570,8262	94,7555
571,7905	95,2602
572,7547	95,6895
573,7189	96,0355
574,6832	96,2767
575,6474	96,3956
576,6116	96,4056
577,5759	96,3625
578,5401	96,3429
579,5043	96,4025
580,4686	96,5433
581,4328	96,7122
582,3970	96,8334
583,3613	96,8571
584,3255	96,7938
585,2897	96,7073
586,2540	96,6737
587,2182	96,7353
588,1824	96,879
589,1467	97,0467
590,1109	97,1677
591,0751	97,1943
592,0394	97,1242
593,0036	96,9971
593,9678	96,8681
594,9321	96,7804
595,8963	96,7538
596,8605	96,7898
597,8248	96,8796
598,7890	97,0067
599,7532	97,1483
600,7175	97,279
601,6817	97,3803
602,6459	97,4486
603,6102	97,4952
604,5744	97,5378
605,5386	97,5889
606,5029	97,6478
607,4671	97,7017
608,4313	97,7337
609,3956	97,7323
610,3598	97,6961
611,3240	97,6329
612,2883	97,5546
613,2525	97,4735
614,2167	97,4014
615,1810	97,3498
616,1452	97,3295
617,1094	97,3465
618,0737	97,3989
619,0379	97,4775
620,0021	97,569
620,9664	97,6621
621,9306	97,7485
622,8948	97,8225
623,8591	97,8794
624,8233	97,9158
625,7875	97,9305
626,7518	97,9254
627,7160	97,9047
628,6802	97,8737
629,6445	97,8378
630,6087	97,8043
631,5729	97,7837
632,5372	97,7889
633,5014	97,8297
634,4656	97,9039
635,4299	97,9901
636,3941	98,0485
637,3583	98,0331
638,3226	97,9114
639,2868	97,6808
640,2510	97,3721
641,2153	97,036
642,1795	96,7199
643,1437	96,4494
644,1080	96,2247
645,0722	96,0347
646,0364	95,8757
647,0007	95,7616
647,9649	95,7145
648,9291	95,7414
649,8934	95,8158
650,8576	95,8801
651,8218	95,8743
652,7861	95,7706
653,7503	95,5897
654,7145	95,3893
655,6788	95,2314
656,6430	95,1505
657,6072	95,1442
658,5715	95,1883
659,5357	95,2597
660,4999	95,3465
661,4642	95,4381
662,4284	95,5073
663,3926	95,5027
664,3569	95,3514
665,3211	94,9684
666,2853	94,2945
667,2496	93,4123
668,2138	92,6742
669,1780	92,4781
670,1423	92,794
671,1065	93,2708
672,0707	93,6351
673,0350	93,7839
673,9992	93,7226
674,9634	93,5206
675,9277	93,2808
676,8919	93,0933
677,8561	92,9906
678,8204	92,9423
679,7846	92,887
680,7488	92,7687
681,7131	92,5577
682,6773	92,2551
683,6415	91,8872
684,6058	91,4963
685,5700	91,1289
686,5342	90,8237
687,4985	90,5968
688,4627	90,4342
689,4269	90,2986
690,3912	90,15
691,3554	89,9655
692,3196	89,7457
693,2839	89,5045
694,2481	89,2521
695,2123	88,9851
696,1766	88,69
697,1408	88,357
698,1050	87,9917
699,0693	87,6167
700,0335	87,2596
700,9977	86,9382
701,9620	86,6518
702,9262	86,3843
703,8904	86,1162
704,8547	85,8389
705,8189	85,5599
706,7831	85,2984
707,7474	85,0745
708,7116	84,8997
709,6758	84,7744
710,6401	84,6908
711,6043	84,6371
712,5685	84,5988
713,5328	84,5583
714,4970	84,497
715,4612	84,3998
716,4255	84,2619
717,3897	84,0933
718,3539	83,9183
719,3182	83,7694
720,2824	83,6751
721,2466	83,65
722,2109	83,6914
723,1751	83,7854
724,1393	83,9158
725,1036	84,069
726,0678	84,2342
727,0320	84,4008
727,9963	84,5593
728,9605	84,7037
729,9247	84,8358
730,8890	84,9657
731,8532	85,1068
732,8174	85,2687
733,7817	85,4514
734,7459	85,6446
735,7101	85,8337
736,6744	86,0088
737,6386	86,1711
738,6028	86,3347
739,5671	86,5195
740,5313	86,7416
741,4955	87,004
742,4598	87,2939
743,4240	87,5879
744,3882	87,8625
745,3525	88,1042
746,3167	88,3128
747,2809	88,4969
748,2452	88,6659
749,2094	88,8257
750,1736	88,9798
751,1379	89,1363
752,1021	89,3106
753,0663	89,5205
754,0306	89,7727
754,9948	90,0517
755,9590	90,322
756,9233	90,545
757,8875	90,7029
758,8517	90,811
759,8160	90,9111
760,7802	91,0477
761,7444	91,2431
762,7087	91,487
763,6729	91,7457
764,6371	91,9818
765,6014	92,1729
766,5656	92,3168
767,5298	92,426
768,4941	92,5179
769,4583	92,6094
770,4225	92,7174
771,3868	92,8601
772,3510	93,0543
773,3152	93,3093
774,2795	93,6208
775,2437	93,9696
776,2079	94,326
777,1722	94,6589
778,1364	94,9448
779,1006	95,1734
780,0649	95,3475
781,0291	95,4777
781,9933	95,5736
782,9576	95,6364
783,9218	95,6555
784,8860	95,6149
785,8503	95,5045
786,8145	95,3326
787,7787	95,1307
788,7430	94,948
789,7072	94,8366
790,6714	94,8357
791,6357	94,959
792,5999	95,1921
793,5641	95,4973
794,5284	95,8245
795,4926	96,1246
796,4568	96,362
797,4211	96,5242
798,3853	96,6244
799,3495	96,695
800,3138	96,7729
801,2780	96,8821
802,2422	97,0245
803,2065	97,1808
804,1707	97,3236
805,1349	97,4333
806,0992	97,5072
807,0634	97,5583
808,0276	97,6042
808,9919	97,6548
809,9561	97,7069
810,9203	97,7464
811,8846	97,7572
812,8488	97,7282
813,8130	97,6571
814,7773	97,5486
815,7415	97,4124
816,7057	97,262
817,6700	97,1135
818,6342	96,983
819,5984	96,8812
820,5627	96,8081
821,5269	96,7518
822,4911	96,6933
823,4554	96,6169
824,4196	96,5187
825,3839	96,4096
826,3481	96,3092
827,3123	96,236
828,2766	96,1992
829,2408	96,1966
830,2050	96,2196
831,1693	96,259
832,1335	96,3094
833,0977	96,3696
834,0620	96,4405
835,0262	96,5222
835,9904	96,6134
836,9547	96,7114
837,9189	96,8124
838,8831	96,9104
839,8474	96,9983
840,8116	97,0684
841,7758	97,1151
842,7401	97,1369
843,7043	97,1363
844,6685	97,1176
845,6328	97,0853
846,5970	97,0446
847,5612	97,0022
848,5255	96,9668
849,4897	96,9467
850,4539	96,9448
851,4182	96,9545
852,3824	96,9612
853,3466	96,9479
854,3109	96,903
855,2751	96,8248
856,2393	96,7206
857,2036	96,6002
858,1678	96,4706
859,1320	96,3333
860,0963	96,1863
861,0605	96,0276
862,0247	95,8572
862,9890	95,6759
863,9532	95,4823
864,9174	95,2721
865,8817	95,0391
866,8459	94,7804
867,8101	94,4999
868,7744	94,2089
869,7386	93,9212
870,7028	93,6451
871,6671	93,3779
872,6313	93,1055
873,5955	92,8088
874,5598	92,4736
875,5240	92,0968
876,4882	91,6857
877,4525	91,2519
878,4167	90,8039
879,3809	90,3455
880,3452	89,8799
881,3094	89,415
882,2736	88,9668
883,2379	88,5548
884,2021	88,1954
885,1663	87,8977
886,1306	87,6647
887,0948	87,4998
888,0590	87,4125
889,0233	87,4164
889,9875	87,5214
890,9517	87,7225
891,9160	87,9952
892,8802	88,2998
893,8444	88,5954
894,8087	88,8556
895,7729	89,0777
896,7371	89,2821
897,7014	89,5023
898,6656	89,7714
899,6298	90,1124
900,5941	90,5338
901,5583	91,0308
902,5225	91,5883
903,4868	92,1831
904,4510	92,7853
905,4152	93,3607
906,3795	93,8766
907,3437	94,3097
908,3079	94,6525
909,2722	94,9149
910,2364	95,1181
911,2006	95,2846
912,1649	95,429
913,1291	95,5541
914,0933	95,6539
915,0576	95,7206
916,0218	95,7514
916,9860	95,7508
917,9503	95,7291
918,9145	95,6962
919,8787	95,6578
920,8430	95,6132
921,8072	95,558
922,7714	95,4879
923,7357	95,4023
924,6999	95,304
925,6641	95,1976
926,6284	95,0851
927,5926	94,9636
928,5568	94,8258
929,5211	94,6632
930,4853	94,4697
931,4495	94,2449
932,4138	93,9937
933,3780	93,7247
934,3422	93,4466
935,3065	93,1661
936,2707	92,8857
937,2349	92,6042
938,1992	92,318
939,1634	92,0232
940,1276	91,7167
941,0919	91,3961
942,0561	91,0581
943,0203	90,6966
943,9846	90,3036
944,9488	89,8707
945,9130	89,3928
946,8773	88,8703
947,8415	88,3079
948,8057	87,7109
949,7700	87,0808
950,7342	86,414
951,6984	85,7041
952,6627	84,9486
953,6269	84,1548
954,5911	83,3432
955,5554	82,5463
956,5196	81,8045
957,4838	81,1598
958,4481	80,6513
959,4123	80,3091
960,3765	80,1499
961,3408	80,1727
962,3050	80,3568
963,2692	80,6658
964,2335	81,0552
965,1977	81,4831
966,1619	81,9197
967,1262	82,3504
968,0904	82,7736
969,0546	83,1939
970,0189	83,6157
970,9831	84,0409
971,9473	84,4709
972,9116	84,9102
973,8758	85,3695
974,8400	85,8637
975,8043	86,4071
976,7685	87,0057
977,7327	87,6514
978,6970	88,3211
979,6612	88,9813
980,6254	89,5969
981,5897	90,1424
982,5539	90,6074
983,5181	90,9971
984,4824	91,3254
985,4466	91,6048
986,4108	91,8391
987,3751	92,0218
988,3393	92,1405
989,3035	92,1838
990,2678	92,1469
991,2320	92,0336
992,1962	91,8543
993,1605	91,623
994,1247	91,3545
995,0889	91,0634
996,0532	90,7628
997,0174	90,4622
997,9816	90,1652
998,9459	89,8689
999,9101	89,5649
1000,8743	89,2429
1001,8386	88,8958
1002,8028	88,5227
1003,7670	88,1284
1004,7313	87,7202
1005,6955	87,3014
1006,6597	86,868
1007,6240	86,4077
1008,5882	85,9061
1009,5524	85,3541
1010,5167	84,7551
1011,4809	84,1254
1012,4451	83,4888
1013,4094	82,8677
1014,3736	82,2761
1015,3378	81,7199
1016,3021	81,2028
1017,2663	80,7338
1018,2305	80,3307
1019,1948	80,016
1020,1590	79,8096
1021,1232	79,7221
1022,0875	79,7554
1023,0517	79,9081
1024,0160	80,1797
1024,9802	80,5689
1025,9445	81,0644
1026,9087	81,6336
1027,8729	82,2179
1028,8372	82,7398
1029,8014	83,1213
1030,7656	83,3046
1031,7299	83,268
1032,6941	83,0307
1033,6583	82,6451
1034,6226	82,1815
1035,5868	81,7091
1036,5510	81,281
1037,5153	80,9269
1038,4795	80,6546
1039,4437	80,458
1040,4080	80,3266
1041,3722	80,2508
1042,3364	80,2225
1043,3007	80,2308
1044,2649	80,2594
1045,2291	80,2872
1046,1934	80,2943
1047,1576	80,2683
1048,1218	80,2077
1049,0861	80,118
1050,0503	80,0046
1051,0145	79,8674
1051,9788	79,7015
1052,9430	79,5031
1053,9072	79,2774
1054,8715	79,0402
1055,8357	78,8144
1056,7999	78,6205
1057,7642	78,4703
1058,7284	78,3654
1059,6926	78,3013
1060,6569	78,2745
1061,6211	78,2859
1062,5853	78,3406
1063,5496	78,4439
1064,5138	78,5976
1065,4780	78,7974
1066,4423	79,0341
1067,4065	79,2952
1068,3707	79,5676
1069,3350	79,8392
1070,2992	80,1012
1071,2634	80,348
1072,2277	80,5785
1073,1919	80,7952
1074,1561	81,0042
1075,1204	81,214
1076,0846	81,4336
1077,0488	81,6714
1078,0131	81,9329
1078,9773	82,219
1079,9415	82,5257
1080,9058	82,8449
1081,8700	83,168
1082,8342	83,4877
1083,7985	83,8
1084,7627	84,1037
1085,7269	84,3997
1086,6912	84,6897
1087,6554	84,9757
1088,6196	85,2598
1089,5839	85,5443
1090,5481	85,8306
1091,5123	86,12
1092,4766	86,4137
1093,4408	86,7139
1094,4050	87,0222
1095,3693	87,3374
1096,3335	87,6527
1097,2977	87,955
1098,2620	88,2296
1099,2262	88,4675
1100,1904	88,6719
1101,1547	88,8588
1102,1189	89,0501
1103,0831	89,2629
1104,0474	89,501
1105,0116	89,7534
1105,9758	90,0014
1106,9401	90,2284
1107,9043	90,4263
1108,8685	90,5965
1109,8328	90,7448
1110,7970	90,8751
1111,7612	90,9872
1112,7255	91,0779
1113,6897	91,1452
1114,6539	91,1914
1115,6182	91,2224
1116,5824	91,2454
1117,5466	91,2656
1118,5109	91,2841
1119,4751	91,2994
1120,4393	91,309
1121,4036	91,3117
1122,3678	91,3078
1123,3320	91,2989
1124,2963	91,2863
1125,2605	91,2711
1126,2247	91,2544
1127,1890	91,2385
1128,1532	91,2273
1129,1174	91,2263
1130,0817	91,2415
1131,0459	91,2792
1132,0101	91,3443
1132,9744	91,4395
1133,9386	91,5641
1134,9028	91,7136
1135,8671	91,881
1136,8313	92,0594
1137,7955	92,245
1138,7598	92,4371
1139,7240	92,6365
1140,6882	92,8424
1141,6525	93,051
1142,6167	93,2571
1143,5809	93,4577
1144,5452	93,6533
1145,5094	93,8466
1146,4736	94,0378
1147,4379	94,2216
1148,4021	94,3886
1149,3663	94,5299
1150,3306	94,6425
1151,2948	94,7309
1152,2590	94,8029
1153,2233	94,8643
1154,1875	94,9151
1155,1517	94,9517
1156,1160	94,9719
1157,0802	94,9791
1158,0444	94,9828
1159,0087	94,9944
1159,9729	95,0217
1160,9371	95,0655
1161,9014	95,1202
1162,8656	95,1778
1163,8298	95,2321
1164,7941	95,282
1165,7583	95,3313
1166,7225	95,3867
1167,6868	95,4549
1168,6510	95,5397
1169,6152	95,6405
1170,5795	95,7523
1171,5437	95,8675
1172,5079	95,9784
1173,4722	96,0806
1174,4364	96,174
1175,4006	96,2633
1176,3649	96,3549
1177,3291	96,4536
1178,2933	96,5596
1179,2576	96,668
1180,2218	96,7711
1181,1860	96,8623
1182,1503	96,9401
1183,1145	97,0087
1184,0787	97,0745
1185,0430	97,1429
1186,0072	97,2145
1186,9714	97,286
1187,9357	97,3521
1188,8999	97,4088
1189,8641	97,455
1190,8284	97,4915
1191,7926	97,5194
1192,7568	97,539
1193,7211	97,5507
1194,6853	97,5566
1195,6495	97,5615
1196,6138	97,5716
1197,5780	97,5927
1198,5422	97,6271
1199,5065	97,6731
1200,4707	97,7257
1201,4349	97,7788
1202,3992	97,8277
1203,3634	97,8711
1204,3276	97,9109
1205,2919	97,9508
1206,2561	97,9942
1207,2203	98,0419
1208,1846	98,0914
1209,1488	98,1379
1210,1130	98,1766
1211,0773	98,2049
1212,0415	98,2233
1213,0057	98,2349
1213,9700	98,2443
1214,9342	98,2558
1215,8984	98,2732
1216,8627	98,3
1217,8269	98,3382
1218,7911	98,3873
1219,7554	98,4437
1220,7196	98,5008
1221,6838	98,5524
1222,6481	98,5947
1223,6123	98,6282
1224,5765	98,6572
1225,5408	98,6864
1226,5050	98,7195
1227,4692	98,757
1228,4335	98,7977
1229,3977	98,84
1230,3619	98,8834
1231,3262	98,9281
1232,2904	98,9749
1233,2546	99,0243
1234,2189	99,0756
1235,1831	99,1267
1236,1473	99,1742
1237,1116	99,2143
1238,0758	99,2447
1239,0400	99,2661
1240,0043	99,2839
1240,9685	99,3057
1241,9327	99,3387
1242,8970	99,3848
1243,8612	99,4393
1244,8254	99,4917
1245,7897	99,5309
1246,7539	99,5498
1247,7181	99,5487
1248,6824	99,534
1249,6466	99,5149
1250,6108	99,4993
1251,5751	99,4911
1252,5393	99,4902
1253,5035	99,4944
1254,4678	99,5012
1255,4320	99,5086
1256,3962	99,5157
1257,3605	99,5223
1258,3247	99,5287
1259,2889	99,5364
1260,2532	99,5475
1261,2174	99,5641
1262,1816	99,5866
1263,1459	99,6127
1264,1101	99,6375
1265,0743	99,6557
1266,0386	99,6638
1267,0028	99,6611
1267,9670	99,6503
1268,9313	99,6353
1269,8955	99,6201
1270,8597	99,6066
1271,8240	99,5955
1272,7882	99,586
1273,7524	99,5766
1274,7167	99,5657
1275,6809	99,552
1276,6451	99,5346
1277,6094	99,5146
1278,5736	99,4952
1279,5378	99,4813
1280,5021	99,4773
1281,4663	99,4934
1282,4305	99,5181
1283,3948	99,5423
1284,3590	99,5577
1285,3232	99,5595
1286,2875	99,5484
1287,2517	99,53
1288,2159	99,5117
1289,1802	99,499
1290,1444	99,4923
1291,1086	99,488
1292,0729	99,4812
1293,0371	99,4694
1294,0013	99,4533
1294,9656	99,4365
1295,9298	99,4228
1296,8940	99,4137
1297,8583	99,4078
1298,8225	99,4014
1299,7867	99,391
1300,7510	99,3752
1301,7152	99,3552
1302,6794	99,3337
1303,6437	99,3133
1304,6079	99,2951
1305,5721	99,2785
1306,5364	99,2611
1307,5006	99,2404
1308,4648	99,2146
1309,4291	99,1831
1310,3933	99,1473
1311,3575	99,1103
1312,3218	99,0761
1313,2860	99,0482
1314,2502	99,0277
1315,2145	99,012
1316,1787	98,9957
1317,1429	98,9721
1318,1072	98,9363
1319,0714	98,8873
1320,0356	98,8284
1320,9999	98,7653
1321,9641	98,703
1322,9283	98,6439
1323,8926	98,5883
1324,8568	98,5352
1325,8210	98,4824
1326,7853	98,427
1327,7495	98,3652
1328,7137	98,2919
1329,6780	98,2025
1330,6422	98,0949
1331,6064	97,971
1332,5707	97,8373
1333,5349	97,7027
1334,4991	97,5758
1335,4634	97,4627
1336,4276	97,3679
1337,3918	97,2961
1338,3561	97,2527
1339,3203	97,2418
1340,2845	97,2612
1341,2488	97,3031
1342,2130	97,358
1343,1772	97,4184
1344,1415	97,4793
1345,1057	97,5363
1346,0699	97,5852
1347,0342	97,623
1347,9984	97,6497
1348,9626	97,6684
1349,9269	97,6844
1350,8911	97,7022
1351,8553	97,7242
1352,8196	97,7504
1353,7838	97,7786
1354,7480	97,8053
1355,7123	97,827
1356,6765	97,8401
1357,6407	97,8416
1358,6050	97,8283
1359,5692	97,7962
1360,5334	97,7425
1361,4977	97,6695
1362,4619	97,588
1363,4261	97,5134
1364,3904	97,4549
1365,3546	97,4122
1366,3188	97,3802
1367,2831	97,3544
1368,2473	97,3337
1369,2115	97,3194
1370,1758	97,3141
1371,1400	97,3212
1372,1042	97,3456
1373,0685	97,3933
1374,0327	97,4676
1374,9969	97,5639
1375,9612	97,6694
1376,9254	97,7712
1377,8896	97,8617
1378,8539	97,9396
1379,8181	98,0051
1380,7823	98,0585
1381,7466	98,0994
1382,7108	98,1274
1383,6750	98,1431
1384,6393	98,1474
1385,6035	98,1427
1386,5677	98,1335
1387,5320	98,1249
1388,4962	98,1195
1389,4604	98,1151
1390,4247	98,108
1391,3889	98,096
1392,3531	98,0805
1393,3174	98,0665
1394,2816	98,0605
1395,2458	98,066
1396,2101	98,0798
1397,1743	98,0939
1398,1385	98,1029
1399,1028	98,1068
1400,0670	98,1088
1401,0313	98,1106
1401,9955	98,1117
1402,9597	98,1106
1403,9240	98,1066
1404,8882	98,1014
1405,8524	98,0981
1406,8167	98,098
1407,7809	98,0998
1408,7451	98,101
1409,7094	98,1007
1410,6736	98,1008
1411,6378	98,1049
1412,6021	98,1147
1413,5663	98,1277
1414,5305	98,1375
1415,4948	98,1356
1416,4590	98,1143
1417,4232	98,0716
1418,3875	98,0178
1419,3517	97,9716
1420,3159	97,9435
1421,2802	97,9283
1422,2444	97,9161
1423,2086	97,9022
1424,1729	97,8877
1425,1371	97,8757
1426,1013	97,8663
1427,0656	97,8551
1428,0298	97,8363
1428,9940	97,8079
1429,9583	97,7748
1430,9225	97,7463
1431,8867	97,7274
1432,8510	97,7139
1433,8152	97,695
1434,7794	97,6587
1435,7437	97,602
1436,7079	97,5387
1437,6721	97,4915
1438,6364	97,4697
1439,6006	97,4638
1440,5648	97,4585
1441,5291	97,4426
1442,4933	97,41
1443,4575	97,3584
1444,4218	97,2876
1445,3860	97,1983
1446,3502	97,0942
1447,3145	96,9828
1448,2787	96,8755
1449,2429	96,7817
1450,2072	96,7037
1451,1714	96,6365
1452,1356	96,5729
1453,0999	96,5048
1454,0641	96,4206
1455,0283	96,2987
1455,9926	96,1108
1456,9568	95,8666
1457,9210	95,6542
1458,8853	95,5395
1459,8495	95,4986
1460,8137	95,4889
1461,7780	95,49
1462,7422	95,5012
1463,7064	95,534
1464,6707	95,5997
1465,6349	95,6927
1466,5991	95,7885
1467,5634	95,8625
1468,5276	95,9002
1469,4918	95,8912
1470,4561	95,8186
1471,4203	95,6591
1472,3845	95,4069
1473,3488	95,114
1474,3130	94,8685
1475,2772	94,7083
1476,2415	94,6152
1477,2057	94,5668
1478,1699	94,5587
1479,1342	94,6001
1480,0984	94,7018
1481,0626	94,8645
1482,0269	95,0725
1482,9911	95,2972
1483,9553	95,5088
1484,9196	95,6854
1485,8838	95,8137
1486,8480	95,8839
1487,8123	95,89
1488,7765	95,843
1489,7407	95,7819
1490,7050	95,7446
1491,6692	95,7338
1492,6334	95,73
