TITLE	N-GQD_CA
DATA TYPE	INFRARED SPECTRUM
ORIGIN	JASCO
OWNER	
DATE	24/11/25
TIME	19:22:01
SPECTROMETER/DATA SYSTEM	
LOCALE	3082
RESOLUTION	
DELTAX	0,964233
XUNITS	1/CM
YUNITS	TRANSMITTANCE
FIRSTX	  399,1927
LASTX	 4000,6047
NPOINTS	    3736
FIRSTY	    79,59370
MAXY	    99,73621
MINY	    42,39575
XYDATA
399,1927	79,5937
400,1569	79,9046
401,1211	78,7588
402,0854	77,6227
403,0496	77,4066
404,0138	78,5028
404,9781	80,7912
405,9423	83,6809
406,9065	86,3193
407,8708	87,9872
408,8350	88,417
409,7992	87,7761
410,7635	86,3902
411,7277	84,4845
412,6919	82,1359
413,6562	79,4015
414,6204	76,4678
415,5846	73,7539
416,5489	72,0098
417,5131	72,2777
418,4773	75,1557
419,4416	79,3975
420,4058	82,454
421,3700	83,1911
422,3343	82,302
423,2985	80,8587
424,2627	79,5645
425,2270	78,7069
426,1912	78,3035
427,1554	78,2877
428,1197	78,648
429,0839	79,4208
430,0481	80,562
431,0124	81,8308
431,9766	82,8142
432,9408	83,1131
433,9051	82,5769
434,8693	81,416
435,8335	80,0947
436,7978	79,0647
437,7620	78,5355
438,7262	78,4395
439,6905	78,559
440,6547	78,6743
441,6189	78,6465
442,5832	78,4314
443,5474	78,0517
444,5116	77,555
445,4759	76,9857
446,4401	76,3839
447,4043	75,7946
448,3686	75,2714
449,3328	74,8675
450,2970	74,6176
451,2613	74,515
452,2255	74,4976
453,1897	74,4557
454,1540	74,2627
455,1182	73,8182
456,0824	73,0962
457,0467	72,1956
458,0109	71,3413
458,9751	70,7712
459,9394	70,5737
460,9036	70,6505
461,8678	70,8215
462,8321	70,9321
463,7963	70,8912
464,7605	70,6636
465,7248	70,2458
466,6890	69,64
467,6532	68,8399
468,6175	67,8367
469,5817	66,6462
470,5459	65,3445
471,5102	64,0864
472,4744	63,0681
473,4386	62,4288
474,4029	62,1695
475,3671	62,1711
476,3313	62,2833
477,2956	62,4
478,2598	62,4906
479,2240	62,594
480,1883	62,779
481,1525	63,0762
482,1167	63,4077
483,0810	63,5646
484,0452	63,2826
485,0094	62,4111
485,9737	61,053
486,9379	59,54
487,9021	58,2751
488,8664	57,5834
489,8306	57,6315
490,7948	58,3813
491,7591	59,5778
492,7233	60,8274
493,6875	61,7907
494,6518	62,3789
495,6160	62,7958
496,5802	63,3655
497,5445	64,2342
498,5087	65,1209
499,4729	65,2986
500,4372	63,9286
501,4014	60,6861
502,3656	56,301
503,3299	52,4634
504,2941	50,9466
505,2583	52,5477
506,2226	56,6402
507,1868	61,5943
508,1510	65,7193
509,1153	68,1169
510,0795	68,9453
511,0437	69,0314
512,0080	69,2187
512,9722	69,9211
513,9365	71,0674
514,9007	72,3308
515,8649	73,4231
516,8292	74,2769
517,7934	75,0283
518,7576	75,8392
519,7219	76,7438
520,6861	77,6566
521,6503	78,4809
522,6146	79,1817
523,5788	79,7893
524,5430	80,3678
525,5073	80,9795
526,4715	81,6583
527,4357	82,4023
528,4000	83,1871
529,3642	83,9836
530,3284	84,7672
531,2927	85,5144
532,2569	86,1968
533,2211	86,7791
534,1854	87,229
535,1496	87,537
536,1138	87,7346
537,0781	87,8958
538,0423	88,1114
539,0065	88,4467
539,9708	88,9074
540,9350	89,439
541,8992	89,9616
542,8635	90,4163
543,8277	90,7922
544,7919	91,1204
545,7562	91,4431
546,7204	91,781
547,6846	92,122
548,6489	92,4345
549,6131	92,6919
550,5773	92,887
551,5416	93,0295
552,5058	93,1385
553,4700	93,2392
554,4343	93,3675
555,3985	93,5708
556,3627	93,8939
557,3270	94,3514
558,2912	94,9022
559,2554	95,448
560,2197	95,8658
561,1839	96,0618
562,1481	96,0231
563,1124	95,8329
564,0766	95,6363
565,0408	95,5713
566,0051	95,7031
566,9693	95,9932
567,9335	96,3203
568,8978	96,5484
569,8620	96,6055
570,8262	96,5182
571,7905	96,379
572,7547	96,2796
573,7189	96,2598
574,6832	96,2987
575,6474	96,3441
576,6116	96,3582
577,5759	96,3418
578,5401	96,3198
579,5043	96,3039
580,4686	96,2691
581,4328	96,1667
582,3970	96,072
583,3613	95,8941
584,3255	95,7008
585,2897	95,5793
586,2540	95,5861
587,2182	95,7208
588,1824	95,9332
589,1467	96,1527
590,1109	96,3188
591,0751	96,4007
592,0394	96,401
593,0036	96,3442
593,9678	96,2593
594,9321	96,1692
595,8963	96,0914
596,8605	96,0405
597,8248	96,0259
598,7890	96,0427
599,7532	96,0657
600,7175	96,0607
601,6817	96,0108
602,6459	95,9391
603,6102	95,9043
604,5744	95,9676
605,5386	96,1497
606,5029	96,4109
607,4671	96,6683
608,4313	96,8424
609,3956	96,8957
610,3598	96,8353
611,3240	96,6824
612,2883	96,4416
613,2525	96,1032
614,2167	95,6802
615,1810	95,2459
616,1452	94,9299
617,1094	94,8548
618,0737	95,0502
619,0379	95,4196
620,0021	95,796
620,9664	96,041
621,9306	96,1112
622,8948	96,055
623,8591	95,9574
624,8233	95,8734
625,7875	95,7957
626,7518	95,6762
627,7160	95,477
628,6802	95,2083
629,6445	94,9228
630,6087	94,6817
631,5729	94,5209
632,5372	94,4375
633,5014	94,4
634,4656	94,3656
635,4299	94,2919
636,3941	94,1401
637,3583	93,8789
638,3226	93,4958
639,2868	93,0119
640,2510	92,4816
641,2153	91,9706
642,1795	91,5196
643,1437	91,1203
644,1080	90,7223
645,0722	90,2732
646,0364	89,7633
647,0007	89,2439
647,9649	88,8015
648,9291	88,4996
649,8934	88,3299
650,8576	88,2098
651,8218	88,0355
652,7861	87,754
653,7503	87,3997
654,7145	87,0731
655,6788	86,8745
656,6430	86,8433
657,6072	86,9471
658,5715	87,1216
659,5357	87,3239
660,4999	87,5491
661,4642	87,796
662,4284	88,015
663,3926	88,0863
664,3569	87,8305
665,3211	87,0329
666,2853	85,5269
667,2496	83,4625
668,2138	81,6366
669,1780	81,0247
670,1423	81,6509
671,1065	82,7499
672,0707	83,6906
673,0350	84,2272
673,9992	84,3611
674,9634	84,2272
675,9277	84,0173
676,8919	83,8893
677,8561	83,8953
678,8204	83,9878
679,7846	84,0871
680,7488	84,1408
681,7131	84,141
682,6773	84,1075
683,6415	84,0624
684,6058	84,0198
685,5700	83,9893
686,5342	83,9836
687,4985	84,0178
688,4627	84,1023
689,4269	84,2358
690,3912	84,4054
691,3554	84,593
692,3196	84,7819
693,2839	84,9586
694,2481	85,1109
695,2123	85,2267
696,1766	85,2975
697,1408	85,3246
698,1050	85,3242
699,0693	85,3236
700,0335	85,3491
700,9977	85,4105
701,9620	85,4933
702,9262	85,5639
703,8904	85,5891
704,8547	85,5557
705,8189	85,4786
706,7831	85,3889
707,7474	85,3126
708,7116	85,2574
709,6758	85,2174
710,6401	85,1886
711,6043	85,1768
712,5685	85,1855
713,5328	85,1932
714,4970	85,1428
715,4612	84,9635
716,4255	84,6158
717,3897	84,1333
718,3539	83,6289
719,3182	83,2514
720,2824	83,1083
721,2466	83,2025
722,2109	83,4356
723,1751	83,6729
724,1393	83,8187
725,1036	83,8494
726,0678	83,8002
727,0320	83,7257
727,9963	83,6651
728,9605	83,6282
729,9247	83,6054
730,8890	83,5839
731,8532	83,5574
732,8174	83,5238
733,7817	83,4794
734,7459	83,4162
735,7101	83,3268
736,6744	83,211
737,6386	83,0785
738,6028	82,9458
739,5671	82,8304
740,5313	82,7439
741,4955	82,689
742,4598	82,6583
743,4240	82,6375
744,3882	82,6108
745,3525	82,5676
746,3167	82,5072
747,2809	82,4393
748,2452	82,3782
749,2094	82,3335
750,1736	82,3034
751,1379	82,2719
752,1021	82,2147
753,0663	82,1095
754,0306	81,947
754,9948	81,7379
755,9590	81,5117
756,9233	81,3072
757,8875	81,158
758,8517	81,0793
759,8160	81,0618
760,7802	81,0762
761,7444	81,0863
762,7087	81,0632
763,6729	80,9958
764,6371	80,8907
765,6014	80,7642
766,5656	80,6307
767,5298	80,4965
768,4941	80,3601
769,4583	80,2191
770,4225	80,0758
771,3868	79,9377
772,3510	79,8112
773,3152	79,6948
774,2795	79,5755
775,2437	79,4337
776,2079	79,254
777,1722	79,0353
778,1364	78,7935
779,1006	78,5556
780,0649	78,3458
781,0291	78,1735
781,9933	78,0284
782,9576	77,885
783,9218	77,7152
784,8860	77,5004
785,8503	77,2397
786,8145	76,9489
787,7787	76,6539
788,7430	76,3808
789,7072	76,1478
790,6714	75,9604
791,6357	75,8109
792,5999	75,6812
793,5641	75,5495
794,5284	75,3969
795,4926	75,2138
796,4568	75,0029
797,4211	74,777
798,3853	74,5533
799,3495	74,3464
800,3138	74,1625
801,2780	73,9971
802,2422	73,8365
803,2065	73,6626
804,1707	73,4597
805,1349	73,2223
806,0992	72,9588
807,0634	72,6907
808,0276	72,4442
808,9919	72,2392
809,9561	72,08
810,9203	71,9529
811,8846	71,8323
812,8488	71,6916
813,8130	71,5133
814,7773	71,2945
815,7415	71,0448
816,7057	70,7808
817,6700	70,5187
818,6342	70,2695
819,5984	70,0376
820,5627	69,8215
821,5269	69,6169
822,4911	69,4185
823,4554	69,221
824,4196	69,0192
825,3839	68,8093
826,3481	68,5911
827,3123	68,3699
828,2766	68,1565
829,2408	67,962
830,2050	67,791
831,1693	67,6372
832,1335	67,4855
833,0977	67,3205
834,0620	67,1354
835,0262	66,9367
835,9904	66,739
836,9547	66,5556
837,9189	66,3897
838,8831	66,2339
839,8474	66,0752
840,8116	65,9018
841,7758	65,7075
842,7401	65,4905
843,7043	65,2514
844,6685	64,9931
845,6328	64,7224
846,5970	64,4505
847,5612	64,1899
848,5255	63,9477
849,4897	63,7205
850,4539	63,4949
851,4182	63,2546
852,3824	62,9899
853,3466	62,7031
854,3109	62,4047
855,2751	62,1046
856,2393	61,8022
857,2036	61,4849
858,1678	61,135
859,1320	60,7427
860,0963	60,3144
861,0605	59,8721
862,0247	59,4424
862,9890	59,0426
863,9532	58,6732
864,9174	58,3215
865,8817	57,9747
866,8459	57,6309
867,8101	57,3022
868,7744	57,005
869,7386	56,7462
870,7028	56,5146
871,6671	56,285
872,6313	56,033
873,5955	55,7515
874,5598	55,4575
875,5240	55,1855
876,4882	54,9722
877,4525	54,8416
878,4167	54,7995
879,3809	54,8378
880,3452	54,9427
881,3094	55,1008
882,2736	55,2992
883,2379	55,522
884,2021	55,7494
885,1663	55,9594
886,1306	56,1344
887,0948	56,2654
888,0590	56,3527
889,0233	56,4012
889,9875	56,4156
890,9517	56,3965
891,9160	56,3397
892,8802	56,2386
893,8444	56,0866
894,8087	55,8799
895,7729	55,6203
896,7371	55,3163
897,7014	54,9822
898,6656	54,6334
899,6298	54,281
900,5941	53,9272
901,5583	53,5664
902,5225	53,19
903,4868	52,7926
904,4510	52,3744
905,4152	51,9376
906,3795	51,4825
907,3437	51,0044
908,3079	50,497
909,2722	49,9585
910,2364	49,3961
911,2006	48,8248
912,1649	48,2614
913,1291	47,7172
914,0933	47,1955
915,0576	46,6933
916,0218	46,2067
916,9860	45,7356
917,9503	45,284
918,9145	44,858
919,8787	44,4619
920,8430	44,0967
921,8072	43,7602
922,7714	43,4501
923,7357	43,167
924,6999	42,9169
925,6641	42,7096
926,6284	42,5545
927,5926	42,4557
928,5568	42,4075
929,5211	42,3957
930,4853	42,4036
931,4495	42,4203
932,4138	42,4465
933,3780	42,4947
934,3422	42,5826
935,3065	42,7235
936,2707	42,9202
937,2349	43,1645
938,1992	43,4424
939,1634	43,7421
940,1276	44,0594
941,0919	44,3974
942,0561	44,7612
943,0203	45,1515
943,9846	45,5611
944,9488	45,9782
945,9130	46,3925
946,8773	46,8025
947,8415	47,2165
948,8057	47,6489
949,7700	48,1123
950,7342	48,6116
951,6984	49,143
952,6627	49,6981
953,6269	50,2687
954,5911	50,8503
955,5554	51,4411
956,5196	52,0394
957,4838	52,642
958,4481	53,2449
959,4123	53,845
960,3765	54,4417
961,3408	55,0364
962,3050	55,6311
963,2692	56,2262
964,2335	56,8197
965,1977	57,4061
966,1619	57,9782
967,1262	58,5273
968,0904	59,0462
969,0546	59,5317
970,0189	59,9858
970,9831	60,4151
971,9473	60,8276
972,9116	61,229
973,8758	61,6208
974,8400	62,0012
975,8043	62,3671
976,7685	62,7158
977,7327	63,0444
978,6970	63,3482
979,6612	63,6204
980,6254	63,8544
981,5897	64,0478
982,5539	64,2039
983,5181	64,3293
984,4824	64,4296
985,4466	64,5043
986,4108	64,5482
987,3751	64,555
988,3393	64,5226
989,3035	64,4543
990,2678	64,3565
991,2320	64,2348
992,1962	64,0922
993,1605	63,9317
994,1247	63,7585
995,0889	63,58
996,0532	63,4017
997,0174	63,2229
997,9816	63,0357
998,9459	62,829
999,9101	62,596
1000,8743	62,338
1001,8386	62,0638
1002,8028	61,7844
1003,7670	61,5078
1004,7313	61,2371
1005,6955	60,9713
1006,6597	60,7077
1007,6240	60,4422
1008,5882	60,1695
1009,5524	59,8847
1010,5167	59,5861
1011,4809	59,2789
1012,4451	58,9749
1013,4094	58,6884
1014,3736	58,4295
1015,3378	58,1991
1016,3021	57,9894
1017,2663	57,7898
1018,2305	57,5928
1019,1948	57,3981
1020,1590	57,2115
1021,1232	57,0402
1022,0875	56,8887
1023,0517	56,7564
1024,0160	56,6382
1024,9802	56,5273
1025,9445	56,4172
1026,9087	56,3027
1027,8729	56,1795
1028,8372	56,0425
1029,8014	55,8853
1030,7656	55,7015
1031,7299	55,4867
1032,6941	55,2413
1033,6583	54,9719
1034,6226	54,6908
1035,5868	54,4126
1036,5510	54,1509
1037,5153	53,9151
1038,4795	53,71
1039,4437	53,5354
1040,4080	53,3892
1041,3722	53,2691
1042,3364	53,1761
1043,3007	53,1153
1044,2649	53,0963
1045,2291	53,1304
1046,1934	53,2265
1047,1576	53,3883
1048,1218	53,613
1049,0861	53,8927
1050,0503	54,2168
1051,0145	54,574
1051,9788	54,9527
1052,9430	55,3414
1053,9072	55,7293
1054,8715	56,1075
1055,8357	56,4706
1056,7999	56,8166
1057,7642	57,145
1058,7284	57,4547
1059,6926	57,7417
1060,6569	58,0008
1061,6211	58,2285
1062,5853	58,4272
1063,5496	58,6081
1064,5138	58,7888
1065,4780	58,988
1066,4423	59,2185
1067,4065	59,4828
1068,3707	59,7739
1069,3350	60,0797
1070,2992	60,3896
1071,2634	60,6986
1072,2277	61,0076
1073,1919	61,3207
1074,1561	61,6431
1075,1204	61,9787
1076,0846	62,3306
1077,0488	62,7009
1078,0131	63,0905
1078,9773	63,4988
1079,9415	63,9241
1080,9058	64,3644
1081,8700	64,8183
1082,8342	65,2849
1083,7985	65,7624
1084,7627	66,2472
1085,7269	66,735
1086,6912	67,2241
1087,6554	67,718
1088,6196	68,2235
1089,5839	68,7458
1090,5481	69,2819
1091,5123	69,8182
1092,4766	70,3359
1093,4408	70,8198
1094,4050	71,2653
1095,3693	71,6775
1096,3335	72,0634
1097,2977	72,4219
1098,2620	72,7411
1099,2262	73,0037
1100,1904	73,1983
1101,1547	73,3272
1102,1189	73,4049
1103,0831	73,449
1104,0474	73,4696
1105,0116	73,4651
1105,9758	73,4261
1106,9401	73,3438
1107,9043	73,2158
1108,8685	73,0469
1109,8328	72,8438
1110,7970	72,6103
1111,7612	72,3461
1112,7255	72,0493
1113,6897	71,7219
1114,6539	71,3716
1115,6182	71,0108
1116,5824	70,6518
1117,5466	70,3021
1118,5109	69,962
1119,4751	69,6271
1120,4393	69,2924
1121,4036	68,9574
1122,3678	68,6282
1123,3320	68,3152
1124,2963	68,029
1125,2605	67,7749
1126,2247	67,5509
1127,1890	67,3491
1128,1532	67,1596
1129,1174	66,9757
1130,0817	66,7974
1131,0459	66,6316
1132,0101	66,4895
1132,9744	66,3825
1133,9386	66,3172
1134,9028	66,2937
1135,8671	66,3068
1136,8313	66,3494
1137,7955	66,4166
1138,7598	66,5072
1139,7240	66,6223
1140,6882	66,7616
1141,6525	66,9215
1142,6167	67,0959
1143,5809	67,2801
1144,5452	67,4743
1145,5094	67,6835
1146,4736	67,9149
1147,4379	68,1734
1148,4021	68,4601
1149,3663	68,7722
1150,3306	69,1058
1151,2948	69,4576
1152,2590	69,8242
1153,2233	70,2006
1154,1875	70,5809
1155,1517	70,9596
1156,1160	71,3353
1157,0802	71,7128
1158,0444	72,1009
1159,0087	72,5092
1159,9729	72,9428
1160,9371	73,4007
1161,9014	73,8761
1162,8656	74,3596
1163,8298	74,8426
1164,7941	75,3194
1165,7583	75,7878
1166,7225	76,2491
1167,6868	76,7068
1168,6510	77,1658
1169,6152	77,6306
1170,5795	78,1035
1171,5437	78,5827
1172,5079	79,0624
1173,4722	79,534
1174,4364	79,9899
1175,4006	80,4272
1176,3649	80,8492
1177,3291	81,2637
1178,2933	81,6779
1179,2576	82,0932
1180,2218	82,5037
1181,1860	82,8994
1182,1503	83,2724
1183,1145	83,6221
1184,0787	83,9555
1185,0430	84,2826
1186,0072	84,6097
1186,9714	84,936
1187,9357	85,2547
1188,8999	85,5576
1189,8641	85,8406
1190,8284	86,1056
1191,7926	86,3595
1192,7568	86,6104
1193,7211	86,8639
1194,6853	87,1222
1195,6495	87,3837
1196,6138	87,6445
1197,5780	87,8996
1198,5422	88,1442
1199,5065	88,3746
1200,4707	88,5889
1201,4349	88,7871
1202,3992	88,9713
1203,3634	89,1448
1204,3276	89,3118
1205,2919	89,4762
1206,2561	89,6403
1207,2203	89,8038
1208,1846	89,9634
1209,1488	90,1148
1210,1130	90,2541
1211,0773	90,3797
1212,0415	90,4916
1213,0057	90,5904
1213,9700	90,6755
1214,9342	90,746
1215,8984	90,8034
1216,8627	90,853
1217,8269	90,9042
1218,7911	90,9654
1219,7554	91,0401
1220,7196	91,1236
1221,6838	91,2052
1222,6481	91,2738
1223,6123	91,3237
1224,5765	91,357
1225,5408	91,3832
1226,5050	91,4139
1227,4692	91,458
1228,4335	91,5188
1229,3977	91,5935
1230,3619	91,6755
1231,3262	91,7581
1232,2904	91,8371
1233,2546	91,9125
1234,2189	91,9865
1235,1831	92,0604
1236,1473	92,1308
1237,1116	92,1908
1238,0758	92,233
1239,0400	92,2561
1240,0043	92,2675
1240,9685	92,2813
1241,9327	92,3113
1242,8970	92,3636
1243,8612	92,4332
1244,8254	92,5071
1245,7897	92,5712
1246,7539	92,6172
1247,7181	92,6446
1248,6824	92,6596
1249,6466	92,6713
1250,6108	92,6888
1251,5751	92,7186
1252,5393	92,7638
1253,5035	92,8228
1254,4678	92,8898
1255,4320	92,9577
1256,3962	93,0221
1257,3605	93,0835
1258,3247	93,1475
1259,2889	93,2203
1260,2532	93,3039
1261,2174	93,3937
1262,1816	93,4815
1263,1459	93,5602
1264,1101	93,628
1265,0743	93,688
1266,0386	93,7452
1267,0028	93,8036
1267,9670	93,8653
1268,9313	93,9318
1269,8955	94,0054
1270,8597	94,0886
1271,8240	94,1826
1272,7882	94,2852
1273,7524	94,3913
1274,7167	94,4951
1275,6809	94,5929
1276,6451	94,6844
1277,6094	94,7721
1278,5736	94,8597
1279,5378	94,9503
1280,5021	95,0454
1281,4663	95,1449
1282,4305	95,2469
1283,3948	95,3488
1284,3590	95,4481
1285,3232	95,5437
1286,2875	95,6364
1287,2517	95,7291
1288,2159	95,8246
1289,1802	95,9234
1290,1444	96,0223
1291,1086	96,1163
1292,0729	96,2015
1293,0371	96,2782
1294,0013	96,3517
1294,9656	96,4296
1295,9298	96,518
1296,8940	96,618
1297,8583	96,7255
1298,8225	96,8334
1299,7867	96,9356
1300,7510	97,029
1301,7152	97,114
1302,6794	97,192
1303,6437	97,2643
1304,6079	97,3309
1305,5721	97,391
1306,5364	97,4441
1307,5006	97,4912
1308,4648	97,5348
1309,4291	97,5783
1310,3933	97,6252
1311,3575	97,6775
1312,3218	97,7348
1313,2860	97,7944
1314,2502	97,8524
1315,2145	97,9052
1316,1787	97,9504
1317,1429	97,9872
1318,1072	98,0156
1319,0714	98,0368
1320,0356	98,0537
1320,9999	98,0703
1321,9641	98,0905
1322,9283	98,1171
1323,8926	98,1497
1324,8568	98,1853
1325,8210	98,218
1326,7853	98,242
1327,7495	98,2532
1328,7137	98,2513
1329,6780	98,2402
1330,6422	98,2259
1331,6064	98,2138
1332,5707	98,205
1333,5349	98,1953
1334,4991	98,1764
1335,4634	98,1402
1336,4276	98,0843
1337,3918	98,0172
1338,3561	97,9599
1339,3203	97,9647
1340,2845	98,032
1341,2488	98,1357
1342,2130	98,2525
1343,1772	98,3613
1344,1415	98,4495
1345,1057	98,5128
1346,0699	98,5519
1347,0342	98,5716
1347,9984	98,5782
1348,9626	98,5775
1349,9269	98,5736
1350,8911	98,5683
1351,8553	98,5625
1352,8196	98,5586
1353,7838	98,5606
1354,7480	98,5719
1355,7123	98,5916
1356,6765	98,6111
1357,6407	98,6149
1358,6050	98,5844
1359,5692	98,5039
1360,5334	98,3684
1361,4977	98,1948
1362,4619	98,0227
1363,4261	97,8898
1364,3904	97,8036
1365,3546	97,741
1366,3188	97,6713
1367,2831	97,5741
1368,2473	97,4446
1369,2115	97,2893
1370,1758	97,1158
1371,1400	96,9248
1372,1042	96,7109
1373,0685	96,4745
1374,0327	96,2339
1374,9969	96,0223
1375,9612	95,8655
1376,9254	95,7625
1377,8896	95,692
1378,8539	95,6308
1379,8181	95,5656
1380,7823	95,4951
1381,7466	95,4235
1382,7108	95,3531
1383,6750	95,2806
1384,6393	95,1994
1385,6035	95,1056
1386,5677	95,003
1387,5320	94,9017
1388,4962	94,8065
1389,4604	94,7094
1390,4247	94,5946
1391,3889	94,4488
1392,3531	94,2683
1393,3174	94,0647
1394,2816	93,8643
1395,2458	93,6974
1396,2101	93,5767
1397,1743	93,4883
1398,1385	93,4072
1399,1028	93,3184
1400,0670	93,2205
1401,0313	93,1168
1401,9955	93,0075
1402,9597	92,8905
1403,9240	92,7673
1404,8882	92,6476
1405,8524	92,5451
1406,8167	92,4674
1407,7809	92,4105
1408,7451	92,3649
1409,7094	92,3246
1410,6736	92,2918
1411,6378	92,2715
1412,6021	92,2631
1413,5663	92,256
1414,5305	92,2335
1415,4948	92,1804
1416,4590	92,0916
1417,4232	91,9826
1418,3875	91,8918
1419,3517	91,8541
1420,3159	91,8667
1421,2802	91,8995
1422,2444	91,929
1423,2086	91,9492
1424,1729	91,9647
1425,1371	91,9801
1426,1013	91,9939
1427,0656	92,0004
1428,0298	91,9951
1428,9940	91,9795
1429,9583	91,9618
1430,9225	91,9494
1431,8867	91,9428
1432,8510	91,9353
1433,8152	91,9211
1434,7794	91,9034
1435,7437	91,9006
1436,7079	91,9387
1437,6721	92,0268
1438,6364	92,1471
1439,6006	92,2754
1440,5648	92,3978
1441,5291	92,5084
1442,4933	92,6028
1443,4575	92,6759
1444,4218	92,7251
1445,3860	92,7553
1446,3502	92,7811
1447,3145	92,8229
1448,2787	92,896
1449,2429	92,9995
1450,2072	93,1168
1451,1714	93,2266
1452,1356	93,3105
1453,0999	93,3531
1454,0641	93,3403
1455,0283	93,2694
1455,9926	93,1893
1456,9568	93,2361
1457,9210	93,4992
1458,8853	93,8639
1459,8495	94,187
1460,8137	94,4267
1461,7780	94,5954
1462,7422	94,7187
1463,7064	94,8282
1464,6707	94,9565
1465,6349	95,1168
1466,5991	95,2901
1467,5634	95,4426
1468,5276	95,5468
1469,4918	95,5819
1470,4561	95,5293
1471,4203	95,3829
1472,3845	95,1862
1473,3488	95,0496
1474,3130	95,0563
1475,2772	95,175
1476,2415	95,3269
1477,2057	95,4638
1478,1699	95,5733
1479,1342	95,6612
1480,0984	95,7389
1481,0626	95,8156
1482,0269	95,8926
1482,9911	95,962
1483,9553	96,0092
1484,9196	96,0166
1485,8838	95,9681
1486,8480	95,8583
1487,8123	95,7153
1488,7765	95,6222
1489,7407	95,6679
1490,7050	95,8441
1491,6692	96,0615
1492,6334	96,2442
